%H field first colomn	Temp row	Cp array	Corrected for demagnetization using the Anaroni demagnetization factor	 NaN means no data	 Interpolated from 6 field measurement
0.0000		229			230			231			232			233			234			235			236			237			238			239			240			241			242			243			244			245			246			247			248			249			250			251			252			253			254			255			256			257			258			259			260			261			262			263			264			265			266			267			268			269			270			271			272			273			274			275			276			277			278			279			280			281			282			283			284			285			286			287			288			289			290			291			292			293			294			295			296			297			298			299			300			301			302			303			304			305			306			307			308			309			310			311			312			313			314			315			316			317			
 0.000		427.2850		428.3777		430.0902		432.1759		433.0203		434.4587		436.1342		436.9634		438.3334		440.4026		441.9144		444.2246		444.6781		447.1246		449.7972		450.9991		452.1516		457.3620		459.5482		460.1693		463.1030		466.0155		468.1186		469.6315		473.6264		477.3757		479.0298		484.0010		485.4262		489.7805		493.3758		498.8778		504.4792		508.3810		514.0886		519.9610		526.7805		532.3598		542.2358		550.5561		557.0095		566.1159		579.2738		590.4836		604.0293		617.3521		635.5209		652.7986		673.0332		695.5438		719.4389		747.7115		774.8100		801.2934		822.1662		834.5231		825.9884		795.6077		740.8540		671.7256		612.9862		579.6664		559.7880		545.3426		533.0281		525.8711		517.1562		508.9955		505.3012		499.2669		495.4556		491.9332		487.9210		485.8520		482.8360		480.5758		478.3260		475.4588		472.9448		473.3420		469.8623		467.7278		465.7541		465.4880		463.5244		461.9778		459.1407		458.8934		454.6727		
 0.010		427.2769		428.3953		430.1565		432.0506		432.9677		434.4120		436.0146		436.8642		438.3515		440.2960		441.8457		444.0837		444.5718		447.1087		449.6006		450.9941		452.1634		457.2432		459.3864		460.0776		462.9193		465.8338		468.0262		469.6579		473.5415		477.2362		478.8972		483.8444		485.3196		489.6880		493.3755		498.6717		504.3720		508.0641		513.8760		519.6740		526.3345		532.0543		541.6693		549.8457		556.5069		565.7557		578.6407		589.7659		603.2463		616.5859		634.4766		651.5539		671.5532		693.8777		717.3660		745.2149		772.0274		798.3196		819.1232		831.3217		823.3818		794.4154		740.9160		674.0726		616.3416		582.8806		562.3857		547.2494		534.4583		526.9983		518.0657		509.6623		505.8306		499.6963		495.7499		492.1590		488.1108		485.9695		482.9458		480.6427		478.4229		475.5958		473.0414		473.4229		469.9634		467.8265		465.9092		465.6279		463.6829		462.1488		459.3907		459.1405		455.0218		
 0.020		427.2688		428.4129		430.2228		431.9253		432.9152		434.3653		435.8950		436.7650		438.3697		440.1893		441.7771		443.9428		444.4655		447.0928		449.4041		450.9891		452.1752		457.1243		459.2246		459.9860		462.7355		465.6520		467.9337		469.6843		473.4565		477.0967		478.7646		483.6878		485.2130		489.5955		493.3751		498.4657		504.2648		507.7472		513.6635		519.3870		525.8884		531.7487		541.1027		549.1354		556.0043		565.3956		578.0077		589.0483		602.4633		615.8197		633.4323		650.3091		670.0733		692.2117		715.2930		742.7182		769.2449		795.3458		816.0802		828.1202		820.7752		793.2231		740.9781		676.4197		619.6969		586.0949		564.9834		549.1562		535.8884		528.1256		518.9753		510.3291		506.3601		500.1257		496.0442		492.3848		488.3006		486.0871		483.0555		480.7096		478.5197		475.7328		473.1380		473.5038		470.0646		467.9251		466.0644		465.7679		463.8414		462.3197		459.6406		459.3876		455.3708		
 0.030		427.2607		428.4305		430.2892		431.8000		432.8626		434.3186		435.7754		436.6658		438.3878		440.0827		441.7085		443.8019		444.3592		447.0769		449.2075		450.9841		452.1870		457.0055		459.0628		459.8943		462.5518		465.4703		467.8412		469.7108		473.3716		476.9572		478.6320		483.5312		485.1064		489.5030		493.3748		498.2596		504.1577		507.4303		513.4509		519.1000		525.4423		531.4432		540.5361		548.4250		555.5017		565.0355		577.3746		588.3306		601.6802		615.0534		632.3881		649.0643		668.5933		690.5456		713.2200		740.2216		766.4623		792.3719		813.0371		824.9187		818.1686		792.0307		741.0401		678.7667		623.0523		589.3091		567.5811		551.0629		537.3186		529.2528		519.8848		510.9959		506.8895		500.5551		496.3384		492.6106		488.4904		486.2046		483.1653		480.7765		478.6165		475.8698		473.2346		473.5848		470.1657		468.0238		466.2195		465.9078		463.9999		462.4907		459.8906		459.6347		455.7198		
 0.040		427.2426		428.4243		430.3167		431.6880		432.8422		434.2906		435.6837		436.5885		438.4566		440.0622		441.6814		443.6850		444.3263		447.1157		449.0645		450.9729		452.2069		456.9803		458.9016		459.7768		462.3681		465.2741		467.7487		469.7440		473.2895		476.8177		478.4881		483.3746		484.9998		489.4085		493.3741		498.0536		504.0505		507.1169		513.2384		518.8130		524.9962		531.1376		539.9696		547.7147		554.9991		564.6754		576.7415		587.6130		600.8972		614.2872		631.3438		647.8195		667.1134		688.8796		711.1471		737.7250		763.6797		789.3981		809.9941		821.7173		815.5620		790.8384		741.1022		681.1137		626.4077		592.5234		570.1788		552.9697		538.7488		530.3801		520.7943		511.6627		507.4189		500.9845		496.6327		492.8364		488.6801		486.3221		483.2750		480.8433		478.7134		476.0068		473.3313		473.6657		470.2669		468.1224		466.3747		466.0478		464.1584		462.6616		460.1405		459.8818		456.0688		
 0.050		427.2220		428.3897		430.3309		431.6012		432.8780		434.3000		435.6451		436.6117		438.5509		440.0993		441.6866		443.6335		444.3679		447.2049		448.9679		450.9290		452.2687		457.0582		458.7594		459.6304		462.4336		465.0507		467.5614		469.7913		473.2144		476.6572		478.2914		483.1901		484.8524		489.2784		493.3557		497.8098		503.9146		506.9819		513.0834		518.5173		524.5381		530.7817		539.3331		547.0033		554.4866		564.3153		576.1068		586.8866		600.1141		613.5210		630.2995		646.5747		665.6334		687.2135		709.0741		735.2283		760.8972		786.4243		806.9510		818.5158		812.9554		789.6461		741.1642		683.4607		629.7631		595.7377		572.7765		554.8765		540.1789		531.5074		521.7039		512.3295		507.9484		501.4139		496.9270		493.0622		488.8699		486.4396		483.3848		480.9102		478.8102		476.1438		473.4279		473.7466		470.3680		468.2211		466.5298		466.1878		464.3170		462.8326		460.3905		460.1289		456.4178		
 0.060		427.2015		428.3550		430.3452		431.5144		432.9137		434.3095		435.6065		436.6350		438.6451		440.1364		441.6919		443.5821		444.4094		447.2940		448.8712		450.8851		452.3305		457.1362		458.6172		459.4841		462.5130		464.8274		467.3650		469.8385		473.1394		476.4890		478.0947		482.9973		484.6855		489.1483		493.3372		497.5658		503.7769		506.8470		512.9928		518.2042		524.0532		530.4047		538.6695		546.2781		553.9643		563.8577		575.4683		586.0998		599.3139		612.7547		629.2798		645.3393		664.1576		685.4860		706.9830		732.7317		758.1146		783.4505		803.9080		815.3144		810.3488		788.4537		741.2263		685.8078		633.1184		598.9519		575.3743		556.7833		541.6091		532.6346		522.6134		512.9963		508.4778		501.8433		497.2213		493.2881		489.0597		486.5571		483.4946		480.9771		478.9071		476.2808		473.5245		473.8275		470.4691		468.3198		466.6850		466.3277		464.4755		463.0035		460.6404		460.3760		456.7669		
 0.070		427.1828		428.3289		430.3584		431.4422		432.9465		434.3200		435.5691		436.6583		438.7394		440.1736		441.6971		443.5306		444.4510		447.3831		448.7745		450.8412		452.3923		457.2142		458.4750		459.3377		462.5925		464.6040		467.1686		469.8857		473.0644		476.3208		477.8981		482.8045		484.5186		489.0181		493.3188		497.3217		503.6393		506.7121		512.9023		517.8911		523.5683		530.0276		538.0060		545.5529		553.4419		563.3761		574.8298		585.3130		598.5069		611.9884		628.3013		644.1413		662.6833		683.7048		704.8525		730.2678		755.3163		780.4767		800.8444		812.1231		807.7622		787.2614		741.2883		688.1548		636.4738		602.1662		577.9720		558.6901		543.0393		533.7619		523.5230		513.6631		509.0073		502.2727		497.5156		493.5139		489.2495		486.6747		483.6043		481.0440		479.0039		476.4177		473.6211		473.9085		470.5703		468.4184		466.8401		466.4677		464.6340		463.1744		460.8904		460.6232		457.1159		
 0.080		427.1703		428.3360		430.3657		431.4632		432.9505		434.3476		435.6124		436.6185		438.7168		440.1029		441.6871		443.5174		444.4432		447.3793		448.7619		450.8158		452.3975		457.2206		458.4131		459.2385		462.6262		464.4536		467.0192		469.9128		472.9935		476.1545		477.7014		482.6117		484.3518		488.8880		493.3004		497.0777		503.5017		506.5772		512.8117		517.5780		523.0834		529.6506		537.3424		544.8277		552.9195		562.8945		574.1913		584.5262		597.6999		611.2221		627.3227		642.9433		661.2089		681.9236		702.7220		727.8251		752.4856		777.3959		797.7605		808.9720		805.3243		786.0691		741.3618		690.5018		639.8292		605.3804		580.5697		560.5968		544.4694		534.8891		524.4325		514.3299		509.5367		502.7021		497.8099		493.7397		489.4393		486.7922		483.7141		481.1108		479.1008		476.5547		473.7177		473.9894		470.6714		468.5171		466.9953		466.6077		464.7925		463.3454		461.1403		460.8703		457.4649		
 0.090		427.1578		428.3431		430.3731		431.4843		432.9545		434.3752		435.6558		436.5775		438.6873		440.0208		441.6746		443.5123		444.4218		447.3427		448.7879		450.8013		452.3608		457.1623		458.4417		459.2058		462.5786		464.4693		467.0074		469.8475		472.9565		476.0487		477.6257		482.6053		484.3075		488.8251		493.2968		496.9205		503.3893		506.4744		512.7045		517.2964		522.6234		529.2735		536.6788		544.1026		552.3972		562.4129		573.5528		583.7394		596.8930		610.4558		626.3441		641.7453		659.7345		680.1425		700.5915		725.3824		749.6549		774.3114		794.6766		805.8209		802.8864		784.6511		741.8382		692.8488		643.1846		608.5790		583.1674		562.5036		545.8996		536.0164		525.3421		514.9967		510.0662		503.1315		498.1041		493.9655		489.6291		486.9097		483.8238		481.1777		479.1976		476.6917		473.8143		474.0703		470.7725		468.6157		467.1504		466.7476		464.9510		463.5163		461.3903		461.1174		457.8139		
 0.100		427.1454		428.3502		430.3805		431.5053		432.9585		434.4028		435.6992		436.5364		438.6579		439.9387		441.6622		443.5073		444.4004		447.3061		448.8139		450.7868		452.3242		457.1040		458.4704		459.1731		462.5309		464.4851		466.9955		469.7821		472.9194		475.9430		477.5564		482.6268		484.2941		488.7885		493.3017		496.8317		503.3043		506.4230		512.5508		517.1810		522.5264		529.1109		536.4392		543.7476		552.0223		562.0040		572.9811		582.9526		596.0860		609.6895		625.3656		640.5473		658.2601		678.3613		698.4611		722.9396		746.8242		771.2268		791.5927		802.6698		800.4484		783.1186		742.3145		694.8179		646.5032		611.6613		585.6690		564.4104		547.3298		537.1437		526.2516		515.6635		510.5956		503.5609		498.3984		494.1913		489.8188		487.0272		483.9336		481.2446		479.2944		476.8287		473.9109		474.1513		470.8737		468.7144		467.3056		466.8876		465.1095		463.6873		461.6403		461.3645		458.1629		
 0.110		427.1329		428.3573		430.3879		431.5264		432.9625		434.4304		435.7426		436.4954		438.6284		439.8567		441.6497		443.5022		444.3790		447.2695		448.8399		450.7723		452.2875		457.0457		458.4991		459.1404		462.4833		464.5009		466.9836		469.7168		472.8824		475.8373		477.4872		482.6484		484.2807		488.7518		493.3065		496.7429		503.2193		506.3716		512.3971		517.0656		522.4294		528.9585		536.2900		543.5805		551.8048		561.7439		572.7049		582.6888		595.6154		609.0723		624.5377		639.3948		656.7857		676.5802		696.3306		720.4969		743.9935		768.1423		788.5089		799.5187		798.0105		781.5861		742.7908		696.7012		649.7789		614.7437		588.1261		566.3330		548.7599		538.2232		527.1182		516.3236		511.1159		503.9903		498.6927		494.4171		490.0086		487.1447		484.0434		481.3115		479.3913		476.9657		474.0075		474.2322		470.9748		468.8130		467.4608		467.0276		465.2681		463.8582		461.8902		461.6116		458.5120		
 0.120		427.1204		428.3644		430.3953		431.5475		432.9665		434.4580		435.7860		436.4543		438.5990		439.7746		441.6373		443.4972		444.3576		447.2329		448.8659		450.7579		452.2508		456.9874		458.5278		459.1077		462.4356		464.5166		466.9718		469.6515		472.8454		475.7315		477.4179		482.6699		484.2673		488.7151		493.3113		496.6541		503.1343		506.3203		512.2434		516.9502		522.3324		528.8062		536.1409		543.4133		551.5873		561.4838		572.4288		582.4281		595.2374		608.5702		624.0042		638.7468		655.9164		675.2990		694.4005		718.0541		741.1628		765.0577		785.4250		796.3676		795.5726		780.0535		743.2671		698.5845		653.0547		617.8261		590.5831		568.3954		550.2590		539.2904		527.9500		516.9576		511.6088		504.3869		498.9870		494.6429		490.1886		487.2623		484.1531		481.3783		479.4881		477.0979		474.1048		474.3131		471.0706		468.9117		467.6159		467.1635		465.4499		464.0292		462.1402		461.8587		458.8610		
 0.130		427.1079		428.3715		430.4026		431.5685		432.9704		434.4856		435.8293		436.4133		438.5695		439.6926		441.6248		443.4922		444.3362		447.1964		448.8920		450.7434		452.2142		456.9291		458.5564		459.0751		462.3880		464.5324		466.9599		469.5861		472.8084		475.6258		477.3486		482.6915		484.2539		488.6784		493.3161		496.5653		503.0494		506.2689		512.0897		516.8348		522.2354		528.6538		535.9917		543.2461		551.3698		561.2237		572.1526		582.1673		594.8594		608.0681		623.4707		638.0989		655.1949		674.5435		693.5370		716.7160		738.9268		761.9732		782.3411		793.2164		793.1346		778.5210		743.7434		700.4677		656.3304		620.9085		593.0401		570.4579		551.7632		540.3576		528.7819		517.5917		512.1017		504.7805		499.2982		494.8779		490.3653		487.3981		484.3038		481.4449		479.5949		477.2286		474.2028		474.4026		471.1535		468.9982		467.7706		467.2975		465.6396		464.1934		462.3912		462.1040		459.2093		
 0.140		427.0954		428.3786		430.4100		431.5896		432.9744		434.5132		435.8727		436.3722		438.5400		439.6105		441.6124		443.4871		444.3148		447.1598		448.9180		450.7289		452.1775		456.8708		458.5851		459.0424		462.3403		464.5482		466.9480		469.5208		472.7713		475.5201		477.2794		482.7131		484.2404		488.6417		493.3209		496.4765		502.9644		506.2175		511.9360		516.7194		522.1384		528.5014		535.8425		543.0789		551.1523		560.9637		571.8764		581.9065		594.4814		607.5659		622.9372		637.4509		654.4734		673.7879		692.6735		715.6954		737.8390		760.4742		779.7670		790.0653		790.6967		776.9885		744.2198		702.3510		659.6062		623.9909		595.4971		572.5203		553.2673		541.4248		529.6137		518.2257		512.5946		505.1742		499.6192		495.1212		490.5420		487.5484		484.4774		481.5112		479.7129		477.3594		474.3008		474.5193		471.2364		469.0667		467.9212		467.4315		465.8293		464.3445		462.6564		462.3470		459.5546		
 0.150		427.0830		428.3857		430.4174		431.6106		432.9784		434.5408		435.9161		436.3312		438.5106		439.5284		441.5999		443.4821		444.2934		447.1232		448.9440		450.7144		452.1409		456.8125		458.6138		459.0097		462.2927		464.5640		466.9361		469.4555		472.7343		475.4143		477.2101		482.7346		484.2270		488.6051		493.3258		496.3877		502.8794		506.1661		511.7824		516.6040		522.0414		528.3490		535.6934		542.9118		550.9347		560.7036		571.6003		581.6457		594.1034		607.0638		622.4037		636.8030		653.7519		673.0324		691.8100		714.6748		736.7513		759.2902		778.5171		788.4119		788.4213		775.4560		744.6961		704.2343		662.8819		627.0733		597.9542		574.5828		554.7715		542.4920		530.4455		518.8597		513.0875		505.5678		499.9402		495.3644		490.7187		487.6986		484.6510		481.5776		479.8310		477.4901		474.3988		474.6359		471.3193		469.1352		468.0718		467.5655		466.0191		464.4955		462.9216		462.5899		459.9000		
 0.160		427.0705		428.3928		430.4248		431.6317		432.9824		434.5684		435.9595		436.2901		438.4811		439.4464		441.5875		443.4770		444.2720		447.0866		448.9700		450.6999		452.1042		456.7542		458.6425		458.9770		462.2450		464.5797		466.9243		469.3901		472.6973		475.3086		477.1409		482.7562		484.2136		488.5684		493.3306		496.2989		502.7944		506.1147		511.6287		516.4886		521.9444		528.1967		535.5442		542.7446		550.7172		560.4435		571.3241		581.3850		593.7254		606.5617		621.8702		636.1550		653.0304		672.2769		690.9465		713.6541		735.6635		758.1061		777.2672		787.3931		787.7072		774.2094		745.1724		706.1176		666.1577		630.1557		600.4112		576.6452		556.2757		543.5593		531.2774		519.4938		513.5805		505.9614		500.2611		495.6077		490.8954		487.8489		484.8246		481.6439		479.9490		477.6208		474.4969		474.7525		471.4022		469.2036		468.2224		467.6996		466.2088		464.6465		463.1868		462.8329		460.2454		
 0.170		427.0580		428.3999		430.4322		431.6528		432.9864		434.5960		436.0029		436.2490		438.4516		439.3643		441.5750		443.4720		444.2506		447.0501		448.9960		450.6854		452.0675		456.6959		458.6711		458.9443		462.1974		464.5955		466.9124		469.3248		472.6603		475.2028		477.0716		482.7778		484.2002		488.5317		493.3354		496.2101		502.7094		506.0633		511.4750		516.3732		521.8474		528.0443		535.3950		542.5774		550.4997		560.1835		571.0479		581.1242		593.3474		606.0595		621.3367		635.5071		652.3089		671.5213		690.0830		712.6335		734.5758		756.9221		776.0173		786.3743		786.9931		773.9985		745.7018		708.0008		669.4334		633.2381		602.8682		578.7076		557.7799		544.6265		532.1092		520.1278		514.0734		506.3551		500.5821		495.8509		491.0721		487.9991		484.9982		481.7102		480.0671		477.7515		474.5949		474.8691		471.4851		469.2721		468.3730		467.8336		466.3985		464.7975		463.4520		463.0758		460.5908		
 0.180		427.0507		428.4070		430.4395		431.6745		432.9922		434.6228		436.0463		436.2103		438.4222		439.2823		441.5626		443.4669		444.2293		447.0135		449.0221		450.6709		452.0309		456.6376		458.6998		458.9116		462.1497		464.6113		466.9005		469.2595		472.6232		475.0971		477.0023		482.7993		484.1867		488.4950		493.3402		496.1213		502.6244		506.0120		511.3213		516.2578		521.7505		527.8919		535.2459		542.4102		550.2822		559.9234		570.7718		580.8634		592.9694		605.5574		620.8032		634.8591		651.5874		670.7658		689.2194		711.6129		733.4880		755.7380		774.7673		785.3556		786.2790		773.7877		746.2969		709.4568		672.7092		636.3204		605.3252		580.7701		559.2840		545.6937		532.9411		520.7618		514.5663		506.7487		500.9031		496.0942		491.2488		488.1494		485.1718		481.7765		480.1851		477.8823		474.6929		474.9858		471.5680		469.3405		468.5236		467.9676		466.5883		464.9486		463.7172		463.3188		460.9362		
 0.190		427.0706		428.4142		430.4469		431.7039		433.0160		434.6397		436.0896		436.2049		438.4095		439.2002		441.5501		443.4619		444.2079		446.9791		449.0481		450.6576		451.9942		456.5793		458.7264		458.8790		462.1043		464.6270		466.8886		469.1941		472.5862		474.9914		476.9331		482.8209		484.1733		488.4583		493.3450		496.0325		502.5395		505.9606		511.1676		516.1424		521.6535		527.7395		535.0967		542.2431		550.0647		559.6633		570.4956		580.6027		592.5914		605.0553		620.2697		634.2112		650.8659		670.0103		688.3559		710.5923		732.4003		754.5540		773.5174		784.3368		785.5649		773.5769		746.8920		710.6016		674.6771		639.4028		607.7823		582.8325		560.7882		546.7609		533.7729		521.3958		515.0592		507.1424		501.2241		496.3374		491.4255		488.2996		485.3454		481.8428		480.3031		478.0130		474.7910		475.1024		471.6509		469.4090		468.6742		468.1016		466.7780		465.0996		463.9824		463.5617		461.2816		
 0.200		427.0904		428.4185		430.4468		431.7333		433.0398		434.6567		436.1349		436.1995		438.4092		439.1380		441.5466		443.4632		444.1776		446.9479		449.0775		450.6745		451.9605		456.5238		458.7453		458.8456		462.0683		464.6856		466.8768		469.1111		472.5461		474.8779		476.8638		482.8368		484.1476		488.4216		493.3426		495.9437		502.4555		505.9051		511.0139		516.0249		521.5565		527.5872		534.9475		542.0759		549.8472		559.4032		570.2195		580.3419		592.2134		604.5532		619.7362		633.5632		650.1444		669.2548		687.4924		709.5717		731.3126		753.3699		772.2675		783.3181		784.8509		773.3661		747.4870		711.7465		676.2775		641.2546		610.1344		584.8950		562.2924		547.8281		534.6047		522.0299		515.5521		507.5360		501.5450		496.5807		491.6022		488.4499		485.5190		481.9091		480.4212		478.1437		474.8890		475.2190		471.7338		469.4775		468.8248		468.2356		466.9678		465.2506		464.2476		463.8047		461.6270		
 0.210		427.1102		428.4217		430.4459		431.7626		433.0637		434.6736		436.1809		436.1941		438.4089		439.1047		441.5535		443.4707		444.1342		446.9167		449.1185		450.6914		451.9416		456.5221		458.7642		458.8053		462.0323		464.7493		466.8649		469.0246		472.5060		474.7618		476.7972		482.8416		484.1072		488.3844		493.3085		495.8622		502.3830		505.7824		510.8854		515.8648		521.4595		527.4381		534.7948		541.9087		549.6296		559.1428		569.9433		580.0811		591.8354		604.0510		619.2027		632.9153		649.4229		668.4992		686.6289		708.5511		730.2248		752.1859		771.0175		782.2993		784.1368		773.1553		748.0821		712.8913		677.8780		643.0191		611.9744		586.8220		563.7966		548.8953		535.4366		522.6639		516.0450		507.9297		501.8660		496.8240		491.7789		488.6001		485.6925		481.9754		480.5392		478.2745		474.9870		475.3356		471.8167		469.5459		468.9754		468.3696		467.1575		465.4016		464.5128		464.0476		461.9724		
 0.220		427.1300		428.4250		430.4451		431.7920		433.0875		434.6906		436.2270		436.1886		438.4086		439.0714		441.5604		443.4783		444.0907		446.8855		449.1596		450.7083		451.9227		456.5204		458.7831		458.7650		461.9963		464.8129		466.8531		468.9381		472.4660		474.6457		476.7362		482.8464		484.0668		488.3459		493.2745		495.8121		502.3106		505.6598		510.7638		515.7047		521.3668		527.2950		534.6398		541.7403		549.4121		558.8819		569.6618		579.8204		591.4574		603.5489		618.6692		632.2673		648.7014		667.7437		685.7654		707.5305		729.1371		751.0018		769.7676		781.2805		783.4227		772.9445		748.6772		714.0361		679.4785		644.7837		613.8145		588.5796		565.3819		550.0610		536.2684		523.2979		516.5380		508.3233		502.1870		497.0672		491.9556		488.7504		485.8661		482.0418		480.6573		478.4052		475.0851		475.4523		471.8996		469.6144		469.1260		468.5036		467.3472		465.5526		464.7780		464.2906		462.3178		
 0.230		427.1498		428.4283		430.4443		431.8214		433.1113		434.7075		436.2731		436.1832		438.4082		439.0381		441.5673		443.4858		444.0473		446.8544		449.2006		450.7252		451.9039		456.5187		458.8020		458.7246		461.9603		464.8766		466.8413		468.8516		472.4259		474.5296		476.6752		482.8512		484.0264		488.3074		493.2405		495.7620		502.2381		505.5372		510.6423		515.5446		521.2873		527.1520		534.4848		541.5430		549.2011		558.6209		569.3780		579.5663		591.0939		603.0468		618.1001		631.6154		647.9799		666.9877		684.9019		706.5099		728.0493		749.8178		768.5177		780.2618		782.7086		772.7337		749.2722		715.1810		681.0789		646.5482		615.6546		590.3371		566.9842		551.4975		537.3361		524.0837		517.0856		508.7170		502.5080		497.3105		492.1323		488.9006		486.0397		482.1081		480.7753		478.5359		475.1831		475.5689		471.9825		469.6828		469.2766		468.6376		467.5370		465.7037		465.0432		464.5336		462.6632		
 0.240		427.1696		428.4316		430.4435		431.8507		433.1352		434.7245		436.3192		436.1778		438.4079		439.0047		441.5742		443.4933		444.0039		446.8232		449.2416		450.7421		451.8850		456.5169		458.8208		458.6843		461.9243		464.9403		466.8294		468.7651		472.3859		474.4135		476.6142		482.8560		483.9861		488.2689		493.2064		495.7119		502.1656		505.4145		510.5208		515.3845		521.2078		527.0089		534.3298		541.3458		548.9906		558.3600		569.0942		579.3166		590.7630		602.5644		617.5269		630.9634		647.2624		666.2062		684.0384		705.4808		726.9605		748.6337		767.2678		779.2430		781.9945		772.5228		749.8673		716.3258		682.6794		648.3128		617.4947		592.0947		568.5866		552.9341		538.4412		525.0253		517.8684		509.3519		503.0749		497.6972		492.4054		489.1174		486.2472		482.1914		480.8951		478.6666		475.2811		475.6855		472.0654		469.7513		469.4272		468.7716		467.7267		465.8547		465.3084		464.7765		463.0086		
 0.250		427.1895		428.4349		430.4427		431.8801		433.1590		434.7414		436.3652		436.1724		438.4076		438.9714		441.5811		443.5008		443.9605		446.7920		449.2826		450.7590		451.8661		456.5152		458.8397		458.6439		461.8883		465.0039		466.8176		468.6786		472.3458		474.2974		476.5531		482.8609		483.9457		488.2304		493.1724		495.6618		502.0931		505.2919		510.3993		515.2244		521.1284		526.8659		534.1748		541.1485		548.7801		558.0991		568.8103		579.0669		590.4321		602.0830		616.9537		630.3114		646.5669		665.4246		683.1606		704.4466		725.8172		747.3887		766.0178		778.2243		781.2804		772.3120		750.4624		717.4706		684.2798		650.0773		619.3347		593.8522		570.1889		554.3706		539.5464		525.9669		518.6512		510.0010		503.7314		498.1971		492.8175		489.4939		486.5999		482.4477		481.1323		478.8632		475.4556		475.8184		472.2036		469.8756		469.5533		468.9017		467.8387		465.9577		465.4734		464.9087		463.2049		
 0.260		427.2093		428.4382		430.4419		431.9095		433.1828		434.7584		436.4113		436.1670		438.4072		438.9381		441.5880		443.5084		443.9171		446.7608		449.3237		450.7759		451.8472		456.5135		458.8586		458.6036		461.8524		465.0676		466.8058		468.5921		472.3058		474.1813		476.4921		482.8657		483.9053		488.1919		493.1383		495.6117		502.0207		505.1693		510.2777		515.0642		521.0489		526.7228		534.0198		540.9513		548.5696		557.8381		568.5265		578.8172		590.1011		601.6016		616.3805		629.6593		645.8713		664.6431		682.2741		703.4124		724.6739		746.1390		764.7679		777.2055		780.5725		772.1012		751.0574		718.6154		685.8803		651.8418		621.1748		595.6098		571.7913		555.8072		540.6516		526.9085		519.4340		510.6502		504.3879		498.6971		493.2296		489.8704		486.9526		482.7041		481.3695		479.0636		475.6391		475.9544		472.3562		470.0190		469.6690		469.0300		467.9070		466.0305		465.5671		464.9539		463.2742		
 0.270		427.2291		428.4414		430.4411		431.9388		433.2067		434.7753		436.4574		436.1615		438.4069		438.9047		441.5949		443.5159		443.8736		446.7296		449.3647		450.7928		451.8284		456.5118		458.8775		458.5633		461.8164		465.1313		466.7940		468.5056		472.2657		474.0652		476.4311		482.8705		483.8650		488.1534		493.1043		495.5616		501.9482		505.0466		510.1562		514.9041		520.9694		526.5797		533.8648		540.7540		548.3591		557.5772		568.2427		578.5675		589.7702		601.1202		615.8073		629.0073		645.1757		663.8615		681.3875		702.3782		723.5306		744.8894		763.4940		776.1867		780.0056		771.9252		751.6525		719.7603		687.4808		653.6064		623.0149		597.3674		573.3936		557.2438		541.7568		527.8502		520.2167		511.2993		505.0444		499.1970		493.6417		490.2469		487.3053		482.9604		481.6067		479.2640		475.8226		476.0903		472.5088		470.1623		469.7847		469.1582		467.9752		466.1034		465.6609		464.9991		463.3435		
 0.280		427.2489		428.4447		430.4403		431.9682		433.2305		434.7923		436.5034		436.1561		438.4066		438.8714		441.6018		443.5234		443.8302		446.6984		449.4057		450.8097		451.8095		456.5100		458.8964		458.5229		461.7804		465.1949		466.7821		468.4191		472.2256		473.9491		476.3701		482.8753		483.8246		488.1149		493.0702		495.5115		501.8757		504.9240		510.0347		514.7440		520.8899		526.4367		533.7098		540.5567		548.1486		557.3163		567.9589		578.3178		589.4393		600.6388		615.2341		628.3553		644.4801		663.0799		680.5010		701.3440		722.3873		743.6397		762.2153		775.1120		779.4387		771.8465		752.2476		720.9051		689.0812		655.3709		624.8549		599.1249		574.9960		558.6803		542.8620		528.7918		520.9995		511.9484		505.7009		499.6970		494.0539		490.6233		487.6579		483.2167		481.8439		479.4644		476.0060		476.2262		472.6614		470.3057		469.9004		469.2864		468.0435		466.1763		465.7547		465.0443		463.4128		
 0.290		427.2687		428.4480		430.4395		431.9975		433.2543		434.8092		436.5495		436.1507		438.4063		438.8381		441.6087		443.5309		443.7868		446.6672		449.4467		450.8266		451.7906		456.5083		458.9153		458.4826		461.7444		465.2586		466.7703		468.3326		472.1856		473.8330		476.3090		482.8801		483.7842		488.0764		493.0362		495.4614		501.8032		504.8014		509.9131		514.5839		520.8104		526.2936		533.5548		540.3595		547.9381		557.0554		567.6751		578.0681		589.1084		600.1574		614.6609		627.7032		643.7845		662.2984		679.6145		700.3098		721.2440		742.3900		760.9366		774.0340		778.8718		771.7677		752.8206		722.1104		690.6817		657.1354		626.6950		600.8825		576.5983		560.1169		543.9672		529.7334		521.7823		512.5976		506.3573		500.1969		494.4660		490.9998		488.0106		483.4731		482.0812		479.6647		476.1895		476.3621		472.8140		470.4491		470.0161		469.4147		468.1118		466.2491		465.8484		465.0894		463.4821		
 0.300		427.2886		428.4513		430.4387		432.0269		433.2782		434.8262		436.5956		436.1453		438.4059		438.8047		441.6155		443.5385		443.7434		446.6360		449.4878		450.8434		451.7717		456.5066		458.9342		458.4423		461.7084		465.3223		466.7585		468.2461		472.1455		473.7169		476.2480		482.8850		483.7439		488.0379		493.0022		495.4112		501.7308		504.6787		509.7916		514.4238		520.7309		526.1506		533.3999		540.1622		547.7276		556.7944		567.3912		577.8184		588.7774		599.6760		614.0877		627.0512		643.0889		661.5168		678.7280		699.2756		720.1008		741.1403		759.6579		772.9560		778.3049		771.6890		753.2804		723.4126		692.3090		658.9000		628.5351		602.6401		578.2007		561.5534		545.0724		530.6750		522.5651		513.2467		507.0138		500.6969		494.8781		491.3763		488.3633		483.7294		482.3184		479.8651		476.3730		476.4980		472.9666		470.5925		470.1318		469.5429		468.1800		466.3220		465.9422		465.1346		463.5514		
 0.310		427.2760		428.4214		430.4143		432.0193		433.2658		434.8029		436.5982		436.1293		438.3923		438.7798		441.6165		443.5432		443.6998		446.6050		449.5288		450.8603		451.7529		456.5049		458.9530		458.4019		461.6724		465.3859		466.7467		468.1596		472.1055		473.6008		476.1870		482.8898		483.7035		487.9994		492.9681		495.3611		501.6583		504.5561		509.6701		514.2637		520.6515		526.0075		533.2449		539.9650		547.5171		556.5335		567.1074		577.5687		588.4465		599.1946		613.5145		626.3991		642.3933		660.7352		677.8414		698.2414		718.9575		739.8906		758.3791		771.8781		777.7381		771.6103		753.7402		724.7147		693.9440		660.6786		630.3761		604.3976		579.8031		562.9900		546.1775		531.6166		523.3479		513.8958		507.6703		501.1968		495.2902		491.7527		488.7160		483.9858		482.5556		480.0655		476.5565		476.6339		473.1192		470.7359		470.2475		469.6711		468.2483		466.3949		466.0360		465.1798		463.6207		
 0.320		427.2456		428.3699		430.3718		431.9783		433.2142		434.7275		436.5315		436.0933		438.3467		438.7800		441.5944		443.5328		443.6555		446.5777		449.4508		450.7733		451.7206		456.4661		458.8880		458.3328		461.6241		465.3635		466.7244		468.0859		472.0497		473.5143		476.1247		482.8834		483.6631		487.9609		492.9341		495.3110		501.5858		504.4335		509.5485		514.1036		520.5720		525.8644		533.0899		539.7677		547.3066		556.2726		566.8236		577.3190		588.1156		598.7132		612.9413		625.7471		641.6977		659.9537		676.9549		697.2072		717.8142		738.6410		757.1004		770.8001		777.1712		771.5315		754.2000		726.0169		695.5790		662.4582		632.2225		606.1318		581.4054		564.4265		547.2827		532.5582		524.1307		514.5450		508.3268		501.6967		495.7024		492.1292		489.0686		484.2421		482.7928		480.2659		476.7399		476.7699		473.2718		470.8793		470.3632		469.7994		468.3165		466.4677		466.1297		465.2250		463.6900		
 0.330		427.2152		428.3183		430.3292		431.9373		433.1626		434.6520		436.4647		436.0574		438.3012		438.7802		441.5723		443.5225		443.6111		446.5504		449.3721		450.6784		451.6863		456.4186		458.7949		458.2503		461.5683		465.2734		466.6915		468.0291		471.9633		473.5122		476.0562		482.7635		483.5486		487.8093		492.8405		495.2226		501.4672		504.2992		509.4140		513.9458		520.4769		525.7124		532.9349		539.5704		547.0961		556.0116		566.5398		577.0693		587.7847		598.2318		612.3681		625.0951		641.0021		659.1721		676.0684		696.1730		716.6709		737.3913		755.8217		769.7221		776.6043		771.4528		754.6598		727.3190		697.2141		664.2377		634.0689		607.8480		582.9615		565.8443		548.3879		533.4998		524.9135		515.1941		508.9833		502.1967		496.1145		492.5057		489.4213		484.4984		483.0300		480.4663		476.9234		476.9058		473.4244		471.0227		470.4789		469.9276		468.3848		466.5406		466.2235		465.2702		463.7593		
 0.340		427.1848		428.2668		430.2866		431.8962		433.1110		434.5765		436.3979		436.0214		438.2556		438.7805		441.5501		443.5121		443.5667		446.5231		449.2935		450.5835		451.6520		456.3711		458.7018		458.1679		461.5126		465.1832		466.6587		467.9723		471.8769		473.5101		475.9877		482.6435		483.4341		487.6477		492.7356		495.1213		501.3259		504.1561		509.2643		513.7922		520.3277		525.4740		532.7169		539.3820		546.8574		555.7434		566.2229		576.7964		587.4537		597.7504		611.7949		624.4430		640.3066		658.3905		675.1819		695.1388		715.5276		736.1416		754.5430		768.6441		776.0374		771.3741		755.1196		728.6211		698.8491		666.0172		635.9152		609.5642		584.5045		567.2152		549.4931		534.4414		525.6963		515.8432		509.6398		502.6966		496.5266		492.8822		489.7740		484.7548		483.2672		480.6667		477.1069		477.0417		473.5769		471.1661		470.5946		470.0558		468.4531		466.6135		466.3172		465.3154		463.8287		
 0.350		427.1544		428.2153		430.2440		431.8552		433.0594		434.5010		436.3311		435.9854		438.2101		438.7807		441.5280		443.5017		443.5224		446.4958		449.2148		450.4886		451.6177		456.3236		458.6088		458.0855		461.4569		465.0931		466.6259		467.9154		471.7905		473.5080		475.9193		482.5235		483.3196		487.4862		492.6307		495.0200		501.1846		504.0130		509.1147		513.6386		520.1784		525.2356		532.4966		539.1956		546.6040		555.4675		565.8321		576.3314		587.0364		597.3068		611.2486		623.8102		639.6110		657.6090		674.2953		694.1045		714.3843		734.8919		753.2643		767.5661		775.4705		771.2954		755.5794		729.9233		700.4841		667.7967		637.7616		611.2804		586.0476		568.5862		550.6177		535.4017		526.4792		516.4623		510.2948		503.1966		496.9387		493.2586		490.1266		485.0111		483.5044		480.8671		477.2904		477.1776		473.7295		471.3095		470.7103		470.1841		468.5213		466.6863		466.4110		465.3605		463.8980		
 0.360		427.1240		428.1637		430.2015		431.8142		433.0077		434.4255		436.2643		435.9495		438.1645		438.7809		441.5059		443.4913		443.4780		446.4685		449.1361		450.3937		451.5834		456.2761		458.5157		458.0031		461.4012		465.0030		466.5930		467.8586		471.7041		473.5058		475.8508		482.4036		483.2051		487.3247		492.5259		494.9188		501.0433		503.8700		508.9650		513.4850		520.0292		524.9972		532.2763		539.0091		546.3507		555.1916		565.4413		575.8664		586.6100		596.8824		610.7412		623.2726		638.9652		656.8128		673.4313		693.0703		713.2410		733.6422		751.9855		766.4882		774.9036		771.2166		756.0392		731.2254		702.1191		669.5762		639.6080		612.9966		587.5906		569.9571		551.7768		536.4294		527.2885		517.0586		510.9494		503.7055		497.3508		493.6079		490.4793		485.2674		483.7405		481.0675		477.4739		477.3186		473.8821		471.4529		470.8260		470.3118		468.5896		466.7592		466.5038		465.4057		463.9673		
 0.370		427.0936		428.1122		430.1589		431.7732		432.9561		434.3501		436.1975		435.9135		438.1189		438.7811		441.4838		443.4810		443.4336		446.4412		449.0575		450.2988		451.5491		456.2286		458.4226		457.9207		461.3454		464.9128		466.5602		467.8018		471.6177		473.5037		475.7823		482.2836		483.0906		487.1632		492.4210		494.8175		500.9019		503.7269		508.8154		513.3314		519.8799		524.7589		532.0560		538.8227		546.0974		554.9156		565.0506		575.4015		586.1835		596.4580		610.2337		622.7349		638.3254		656.0066		672.6339		692.1623		712.1586		732.3994		750.7068		765.4102		774.3367		771.1379		756.4990		732.5276		703.7542		671.3557		641.4543		614.7128		589.1337		571.3281		552.9359		537.4570		528.0979		517.6548		511.6039		504.2518		497.7771		493.9492		490.8252		485.5333		483.9758		481.2691		477.6581		477.4733		474.0336		471.5718		470.9364		470.4222		468.6553		466.8511		466.5892		465.4509		464.0237		
 0.380		427.0632		428.0606		430.1163		431.7321		432.9045		434.2746		436.1307		435.8775		438.0734		438.7814		441.4617		443.4706		443.3892		446.4139		448.9788		450.2039		451.5148		456.1811		458.3295		457.8383		461.2897		464.8227		466.5274		467.7450		471.5313		473.5016		475.7138		482.1637		482.9761		487.0017		492.3161		494.7163		500.7606		503.5838		508.6657		513.1778		519.7307		524.5205		531.8357		538.6362		545.8440		554.6397		564.6598		574.9365		585.7570		596.0336		609.7263		622.1972		637.6856		655.2005		671.8365		691.2711		711.1352		731.2877		749.5086		764.3322		773.7698		771.0592		756.9587		733.8297		705.3892		673.1352		643.3007		616.4290		590.6767		572.6990		554.0950		538.4847		528.9073		518.2510		512.2584		504.7981		498.2036		494.2904		491.1426		485.8201		484.2111		481.4946		477.8657		477.6280		474.1818		471.6896		471.0467		470.5325		468.7210		466.9459		466.6745		465.4824		464.0772		
 0.390		427.0328		428.0091		430.0737		431.6911		432.8529		434.1991		436.0639		435.8416		438.0278		438.7816		441.4396		443.4602		443.3449		446.3866		448.9002		450.1091		451.4805		456.1336		458.2365		457.7558		461.2340		464.7325		466.4945		467.6882		471.4448		473.4995		475.6454		482.0437		482.8616		486.8402		492.2112		494.6150		500.6193		503.4408		508.5161		513.0243		519.5815		524.2821		531.6154		538.4497		545.5907		554.3637		564.2691		574.4715		585.3306		595.6092		609.2188		621.6596		637.0458		654.3943		671.0392		690.3799		710.1118		730.1760		748.3747		763.2996		773.0513		770.9804		757.4185		735.1319		707.0242		674.9147		645.1470		618.1452		592.2198		574.0700		555.2541		539.5123		529.7167		518.8473		512.9129		505.3444		498.6300		494.6317		491.4600		486.1069		484.4465		481.7201		478.0733		477.7826		474.3300		471.8074		471.1569		470.6429		468.7867		467.0407		466.7599		465.5101		464.1308		
 0.400		427.0024		427.9575		430.0312		431.6501		432.8013		434.1236		435.9972		435.8056		437.9823		438.7818		441.4174		443.4498		443.3005		446.3593		448.8215		450.0142		451.4462		456.0861		458.1434		457.6734		461.1783		464.6424		466.4617		467.6314		471.3584		473.4974		475.5769		481.9238		482.7471		486.6787		492.1063		494.5137		500.4780		503.2977		508.3665		512.8707		519.4322		524.0437		531.3951		538.2633		545.3373		554.0878		563.8783		574.0066		584.9041		595.1849		608.7114		621.1219		636.4059		653.5881		670.2418		689.4888		709.0884		729.0642		747.2409		762.2681		772.1155		770.4808		757.8412		736.4340		708.6593		676.6942		646.9934		619.8613		593.7628		575.4409		556.4132		540.5400		530.5261		519.4435		513.5674		505.8907		499.0565		494.9730		491.7774		486.3936		484.6818		481.9455		478.2809		477.9373		474.4783		471.9251		471.2671		470.7532		468.8524		467.1356		466.8453		465.5377		464.1844		
 0.410		426.9720		427.9060		429.9886		431.6090		432.7497		434.0481		435.9304		435.7696		437.9367		438.7821		441.3953		443.4395		443.2561		446.3320		448.7429		449.9193		451.4119		456.0386		458.0503		457.5910		461.1225		464.5522		466.4289		467.5746		471.2720		473.4953		475.5084		481.8038		482.6326		486.5172		492.0014		494.4125		500.3367		503.1546		508.2168		512.7171		519.2830		523.8053		531.1748		538.0768		545.0840		553.8118		563.4875		573.5416		584.4776		594.7605		608.2040		620.5843		635.7661		652.7820		669.4444		688.5976		708.0650		727.9525		746.1070		761.2366		771.1798		769.8003		757.5585		737.4887		710.2943		678.4737		648.8398		621.5775		595.3059		576.8119		557.5723		541.5676		531.3354		520.0398		514.2219		506.4370		499.4830		495.3143		492.0948		486.6804		484.9171		482.1710		478.4885		478.0920		474.6265		472.0429		471.3774		470.8635		468.9181		467.2304		466.9306		465.5654		464.2379		
 0.420		426.9416		427.8533		429.9460		431.5680		432.6981		433.9727		435.8636		435.7337		437.8912		438.7823		441.3732		443.4291		443.2118		446.3046		448.6642		449.8244		451.3776		455.9911		457.9572		457.5086		461.0668		464.4621		466.3961		467.5178		471.1856		473.4932		475.4399		481.6839		482.5181		486.3557		491.8965		494.3112		500.1953		503.0115		508.0672		512.5635		519.1338		523.5669		530.9545		537.8904		544.8306		553.5359		563.0968		573.0766		584.0512		594.3361		607.6965		620.0466		635.1263		651.9758		668.6470		687.7064		707.0416		726.8408		744.9731		760.2051		770.2440		769.1198		757.2757		737.8744		711.4752		680.2532		650.6861		623.2937		596.8489		578.1828		558.7314		542.5953		532.1448		520.6360		514.8764		506.9833		499.9095		495.6555		492.4121		486.9672		485.1524		482.3964		478.6961		478.2466		474.7748		472.1607		471.4876		470.9739		468.9838		467.3252		467.0160		465.5931		464.2915		
 0.430		426.9038		427.7977		429.8990		431.5270		432.6365		433.9240		435.8209		435.7015		437.8456		438.8174		441.3580		443.4187		443.1571		446.2757		448.5855		449.7295		451.3420		455.9442		457.8641		457.4262		461.0127		464.3720		466.3632		467.4610		471.0992		473.4910		475.3715		481.5639		482.4036		486.1942		491.7916		494.2099		500.0540		502.8685		507.9175		512.4099		518.9845		523.3285		530.7342		537.7039		544.5773		553.2600		562.7060		572.6117		583.6247		593.9117		607.1891		619.5090		634.4865		651.1696		667.8496		686.8152		706.0182		725.7291		743.8393		759.1736		769.3083		768.4393		756.9929		738.2600		712.1317		681.4182		652.5253		625.0099		598.3920		579.5538		559.8905		543.6229		532.9542		521.2323		515.5310		507.5296		500.3359		495.9968		492.7295		487.2540		485.3878		482.6219		478.9037		478.4013		474.9230		472.2785		471.5978		471.0842		469.0495		467.4201		467.1013		465.6207		464.3451		
 0.440		426.8645		427.7420		429.8501		431.4828		432.5731		433.8924		435.7874		435.6713		437.8065		438.8654		441.3471		443.4040		443.0958		446.2355		448.5069		449.6464		451.3002		455.8997		457.7928		457.3438		460.9734		464.2818		466.2585		467.4141		471.0186		473.4806		475.3137		481.4439		482.2891		486.0422		491.6867		494.1087		499.9127		502.7254		507.7679		512.2563		518.8353		523.0902		530.5139		537.5175		544.3239		552.9840		562.3153		572.1467		583.1982		593.4873		606.6816		618.9713		633.8467		650.3635		667.0522		685.9241		704.9948		724.6174		742.7054		758.1420		768.3726		767.7588		756.7102		738.6457		712.7881		682.3622		653.6576		626.6041		599.9350		580.9247		561.0496		544.6506		533.7636		521.8285		516.1855		508.0759		500.7624		496.3381		493.0469		487.5408		485.6231		482.8473		479.1113		478.5560		475.0712		472.3963		471.7080		471.1946		469.1153		467.5149		467.1867		465.6484		464.3987		
 0.450		426.8251		427.6863		429.8012		431.4377		432.5098		433.8608		435.7538		435.6411		437.7745		438.9133		441.3362		443.3596		443.0344		446.1953		448.4306		449.5953		451.2583		455.8552		457.7233		457.2996		460.9342		464.2102		466.1520		467.3684		470.9403		473.4586		475.2623		481.3049		482.1790		485.9311		491.5760		494.0074		499.7585		502.6048		507.6182		512.1287		518.6520		522.8518		530.3002		537.3235		544.0676		552.7081		561.9245		571.6817		582.7718		593.0629		606.1742		618.4337		633.2069		649.5573		666.2548		685.0329		703.9714		723.5057		741.5715		757.1105		767.4368		767.0783		756.4274		739.0313		713.4446		683.3062		654.7898		627.8001		601.2457		582.2695		562.2087		545.6782		534.5730		522.4247		516.8400		508.6222		501.1889		496.6794		493.3643		487.8275		485.8584		483.0728		479.3189		478.7106		475.2195		472.5141		471.8183		471.3049		469.1810		467.6097		467.2721		465.6761		464.4522		
 0.460		426.7858		427.6306		429.7524		431.3926		432.4464		433.8293		435.7203		435.6108		437.7425		438.9612		441.3254		443.3151		442.9731		446.1551		448.3542		449.5441		451.2164		455.8107		457.6539		457.2975		460.8950		464.1436		466.0454		467.3226		470.8620		473.4365		475.2110		481.1457		482.0812		485.8200		491.4261		493.8876		499.5971		502.4949		507.4911		512.0188		518.4632		522.6186		530.1026		537.1155		543.7953		552.3909		561.5337		571.2337		582.3497		592.6381		605.6667		617.8960		632.5671		648.7511		665.4574		684.1417		702.9481		722.3939		740.4377		756.0790		766.5011		766.3978		756.1447		739.4170		714.1011		684.2501		655.9221		628.9960		602.4269		583.3391		563.3071		546.6992		535.3824		523.0210		517.4945		509.1685		501.6153		497.0206		493.6817		488.1143		486.0937		483.2983		479.5265		478.8653		475.3677		472.6318		471.9285		471.4152		469.2467		467.7045		467.3574		465.7037		464.5058		
 0.470		426.7465		427.5749		429.7035		431.3475		432.3830		433.7977		435.6867		435.5806		437.7105		439.0092		441.3145		443.2707		442.9117		446.1150		448.2779		449.4930		451.1745		455.7662		457.5844		457.2955		460.8557		464.0770		465.9389		467.2768		470.7837		473.4144		475.1596		480.9864		481.9834		485.7089		491.2763		493.7638		499.4357		502.3851		507.3769		511.9090		518.2743		522.4040		529.9050		536.9076		543.5231		552.0540		561.1522		570.7999		581.9380		592.2112		605.1598		617.3655		631.9179		647.9450		664.6600		683.2505		701.9247		721.2822		739.3038		755.0475		765.5653		765.7173		755.8619		739.8026		714.7575		685.1941		657.0543		630.1919		603.6081		584.4088		564.3527		547.6398		536.1788		523.6856		518.1460		509.7148		502.0418		497.3619		493.9991		488.4011		486.3291		483.5237		479.7341		479.0200		475.5159		472.7496		472.0387		471.5256		469.3124		467.7994		467.4428		465.7314		464.5594		
 0.480		426.7072		427.5193		429.6546		431.3024		432.3196		433.7662		435.6532		435.5504		437.6785		439.0571		441.3036		443.2263		442.8504		446.0748		448.2015		449.4418		451.1327		455.7217		457.5150		457.2934		460.8165		464.0103		465.8324		467.2311		470.7054		473.3924		475.1083		480.8271		481.8857		485.5978		491.1265		493.6400		499.2743		502.2753		507.2626		511.7991		518.0855		522.1894		529.7074		536.6996		543.2508		551.7170		560.7754		570.3662		581.5263		591.7842		604.6533		616.8392		631.2515		647.1471		663.8312		682.3417		700.8980		720.1706		738.1699		754.0160		764.6296		765.0368		755.5792		740.1883		715.4140		686.1381		658.1866		631.3879		604.7893		585.4785		565.3984		548.5803		536.9706		524.4723		518.7446		510.2224		502.4769		497.7255		494.3201		488.6885		486.5644		483.7492		479.9417		479.1746		475.6642		472.8674		472.1489		471.6359		469.3781		467.8942		467.5282		465.7591		464.6130		
 0.490		426.6678		427.4636		429.6058		431.2573		432.2562		433.7346		435.6196		435.5201		437.6465		439.1050		441.2928		443.1819		442.7890		446.0346		448.1252		449.3906		451.0908		455.6772		457.4455		457.2914		460.7773		463.9437		465.7259		467.1853		470.6271		473.3703		475.0569		480.6678		481.7879		485.4868		490.9767		493.5162		499.1129		502.1654		507.1484		511.6892		517.8967		521.9748		529.5099		536.4916		542.9785		551.3801		560.3986		569.9324		581.1146		591.3572		604.1468		616.3130		630.5850		646.4031		662.9945		681.4054		699.8400		719.0621		737.0415		752.9845		763.6938		764.3563		755.2964		740.5739		716.0705		687.0821		659.3188		632.5838		605.9705		586.5482		566.4440		549.5209		537.7625		525.2589		519.3432		510.7211		502.9189		498.1314		494.6569		488.9991		486.8026		483.9490		480.1015		479.3128		475.7917		472.9806		472.2463		471.7302		469.4415		467.9775		467.6022		465.7859		464.6644		
 0.500		426.6285		427.4079		429.5569		431.2122		432.1928		433.7030		435.5861		435.4899		437.6145		439.1530		441.2819		443.1375		442.7277		445.9944		448.0489		449.3395		451.0489		455.6328		457.3761		457.2893		460.7381		463.8771		465.6193		467.1396		470.5488		473.3482		475.0056		480.5086		481.6901		485.3757		490.8269		493.3925		498.9515		502.0556		507.0342		511.5794		517.7078		521.7603		529.3123		536.2836		542.7062		551.0432		560.0217		569.4987		580.7029		590.9303		603.6403		615.7868		629.9185		645.6591		662.1578		680.4691		698.7820		717.9536		735.9238		751.9741		762.7586		763.6758		755.0137		740.9596		716.7269		688.0260		660.4511		633.7797		607.1517		587.6178		567.4897		550.4614		538.5543		526.0456		519.9418		511.2199		503.3610		498.5374		494.9938		489.3097		487.0411		484.1407		480.2378		479.4390		475.8976		473.0869		472.3169		471.7808		469.4962		468.0026		467.5841		465.8014		464.6340		
 0.510		426.5892		427.3522		429.5080		431.1671		432.1294		433.6715		435.5525		435.4597		437.5825		439.2009		441.2710		443.0931		442.6663		445.9542		447.9725		449.2883		451.0071		455.5883		457.3066		457.2873		460.6988		463.8104		465.5128		467.0938		470.4705		473.3262		474.9543		480.3493		481.5924		485.2646		490.6771		493.2687		498.7901		501.9458		506.9200		511.4695		517.5190		521.5457		529.1147		536.0756		542.4339		550.7062		559.6449		569.0649		580.2913		590.5033		603.1338		615.2606		629.2521		644.9151		661.3212		679.5328		697.7240		716.8451		734.8062		750.9714		761.8290		763.0081		754.7309		741.3452		717.3834		688.9700		661.5834		634.9756		608.3329		588.6875		568.5353		551.4020		539.3461		526.8323		520.5403		511.7186		503.8030		498.9434		495.3306		489.6203		487.2796		484.3324		480.3741		479.5651		476.0034		473.1932		472.3874		471.8314		469.5509		468.0276		467.5660		465.8168		464.6035		
 0.520		426.5499		427.2965		429.4592		431.1220		432.0660		433.6399		435.5190		435.4294		437.5505		439.2489		441.2602		443.0486		442.6050		445.9140		447.8962		449.2372		450.9652		455.5438		457.2372		457.2852		460.6596		463.7438		465.4063		467.0480		470.3921		473.3041		474.9029		480.1900		481.4946		485.1535		490.5272		493.1449		498.6287		501.8359		506.8057		511.3596		517.3302		521.3311		528.9171		535.8676		542.1616		550.3693		559.2681		568.6312		579.8796		590.0763		602.6273		614.7344		628.5856		644.1711		660.4845		678.5965		696.6660		715.7365		733.6885		749.9686		760.8994		762.4369		754.5417		741.7309		718.0399		689.9140		662.7156		636.1716		609.5141		589.7572		569.5810		552.3425		540.1380		527.6190		521.1389		512.2173		504.2451		499.3494		495.6675		489.9309		487.5182		484.5242		480.5103		479.6913		476.1093		473.2995		472.4580		471.8821		469.6056		468.0527		467.5479		465.8323		464.5730		
 0.530		426.5105		427.2409		429.4103		431.0769		432.0026		433.6084		435.4854		435.3992		437.5185		439.2968		441.2493		443.0042		442.5436		445.8739		447.8199		449.1860		450.9233		455.4993		457.1677		457.2832		460.6204		463.6771		465.2998		467.0023		470.3138		473.2820		474.8516		480.0308		481.3968		485.0424		490.3774		493.0211		498.4673		501.7261		506.6915		511.2497		517.1413		521.1165		528.7195		535.6596		541.8893		550.0324		558.8913		568.1975		579.4679		589.6494		602.1208		614.2082		627.9191		643.4270		659.6478		677.6603		695.6080		714.6280		732.5708		748.9659		759.9698		761.8657		754.3959		742.1166		718.7261		690.8580		663.8479		637.3675		610.6953		590.8269		570.6266		553.2831		540.9298		528.4057		521.7375		512.7160		504.6871		499.7554		496.0043		490.2414		487.7567		484.7159		480.6466		479.8175		476.2152		473.4059		472.5286		471.9327		469.6603		468.0777		467.5298		465.8477		464.5426		
 0.540		426.4712		427.1852		429.3614		431.0318		431.9392		433.5768		435.4519		435.3690		437.4865		439.3447		441.2384		442.9598		442.4823		445.8337		447.7435		449.1348		450.8814		455.4548		457.0983		457.2811		460.5811		463.6105		465.1932		466.9565		470.2355		473.2600		474.8002		479.8715		481.2990		484.9313		490.2276		492.8973		498.3059		501.6163		506.5773		511.1399		516.9525		520.9020		528.5219		535.4516		541.6170		549.6954		558.5145		567.7637		579.0562		589.2224		601.6143		613.6820		627.2527		642.6830		658.8111		676.7240		694.5500		713.5195		731.4532		747.9632		759.0401		761.2946		754.2501		742.3976		719.4737		691.8330		664.9801		638.5634		611.8765		591.8965		571.6723		554.2237		541.7216		529.1923		522.3361		513.2148		505.1291		500.1614		496.3412		490.5520		487.9952		484.9076		480.7828		479.9436		476.3210		473.5122		472.5991		471.9834		469.7151		468.1028		467.5117		465.8631		464.5121		
 0.550		426.4492		427.1529		429.3220		430.9935		431.8776		433.5453		435.4183		435.3387		437.4545		439.3927		441.2276		442.9154		442.4209		445.7935		447.6672		449.0837		450.8396		455.4103		457.0289		457.2791		460.5419		463.5439		465.0867		466.9107		470.1572		473.2379		474.7489		479.7122		481.2013		484.8203		490.0778		492.7736		498.1445		501.5064		506.4630		511.0300		516.7636		520.6874		528.3243		535.2436		541.3447		549.3585		558.1376		567.3300		578.6445		588.7954		601.1078		613.1557		626.5862		641.9390		657.9745		675.7877		693.4920		712.4110		730.3355		746.9604		758.1105		760.7234		754.1043		742.6698		720.2214		692.8419		666.1137		639.7585		613.0578		592.9662		572.7179		555.1642		542.5134		529.9790		522.9346		513.7135		505.5712		500.5674		496.6780		490.8626		488.2338		485.0993		480.9191		480.0698		476.4269		473.6185		472.6697		472.0340		469.7698		468.1278		467.4936		465.8786		464.4816		
 0.560		426.5035		427.2589		429.3633		431.0532		431.9311		433.5619		435.4608		435.4024		437.4689		439.3901		441.2497		442.9191		442.4173		445.7906		447.6496		449.0514		450.8077		455.3734		456.9777		457.2765		460.5099		463.4823		464.9814		466.8650		470.0789		473.2158		474.6975		479.5529		481.1035		484.7092		489.9280		492.6498		497.9831		501.3966		506.3488		510.9201		516.5748		520.4728		528.1267		535.0356		541.0724		549.0215		557.7608		566.8962		578.2328		588.3685		600.6012		612.6295		625.9197		641.1950		657.1378		674.8514		692.4341		711.3025		729.2178		745.9577		757.1809		760.1522		753.9585		742.9419		720.9690		693.8507		667.2480		640.9402		614.2390		594.0359		573.7635		556.1048		543.3053		530.7657		523.5332		514.2122		506.0132		500.9734		497.0149		491.1732		488.4723		485.2910		481.0553		480.1960		476.5328		473.7248		472.7402		472.0847		469.8245		468.1529		467.4755		465.8940		464.4511		
 0.570		426.5578		427.3650		429.4045		431.1130		431.9846		433.5804		435.5104		435.4807		437.4936		439.3730		441.2844		442.9461		442.4483		445.8158		447.6885		449.0426		450.7917		455.3521		456.9788		457.2719		460.5226		463.4801		464.9587		466.8563		470.0160		473.1807		474.6594		479.4723		481.0680		484.6256		489.8089		492.5288		497.8411		501.2865		506.2346		510.8103		516.3860		520.2582		527.9291		534.8276		540.8002		548.6846		557.3840		566.4625		577.8211		587.9415		600.0947		612.1033		625.2532		640.4510		656.3011		673.9151		691.3761		710.1939		728.1002		744.9549		756.2513		759.5810		753.8127		743.2141		721.7166		694.8595		668.3822		642.1219		615.4221		595.1077		574.8055		557.0453		544.0971		531.5524		524.1318		514.7110		506.4553		501.3794		497.3517		491.4838		488.7108		485.4828		481.1916		480.3222		476.6386		473.8311		472.8108		472.1353		469.8792		468.1779		467.4574		465.9094		464.4207		
 0.580		426.6121		427.4710		429.4458		431.1727		432.0381		433.5988		435.5600		435.5590		437.5182		439.3558		441.3192		442.9730		442.4793		445.8410		447.7275		449.0339		450.7758		455.3309		456.9800		457.2674		460.5353		463.4779		464.9360		466.8500		469.9556		473.1417		474.6274		479.4443		481.0926		484.5793		489.7496		492.4160		497.7939		501.1726		506.0289		510.6836		516.2512		520.0850		527.7661		534.6310		540.5468		548.3477		557.0072		566.0287		577.4095		587.5145		599.5882		611.5771		624.5868		639.7069		655.4645		672.9788		690.3181		709.0854		726.9825		743.9522		755.3216		759.0099		753.6669		743.4862		722.4643		695.8684		669.5165		643.3037		616.6128		596.1799		575.8420		557.9852		544.8733		532.3391		524.7303		515.2097		506.8973		501.7854		497.6886		491.7943		488.9494		485.6745		481.3278		480.4483		476.7445		473.9374		472.8814		472.1860		469.9340		468.2030		467.4393		465.9249		464.3902		
 0.590		426.6664		427.5770		429.4870		431.2325		432.0915		433.6173		435.6096		435.6374		437.5428		439.3386		441.3539		442.9999		442.5102		445.8662		447.7664		449.0251		450.7598		455.3096		456.9811		457.2628		460.5480		463.4757		464.9134		466.8438		469.8952		473.1027		474.5954		479.4162		481.1171		484.5329		489.6904		492.3032		497.7468		501.0587		505.8194		510.5540		516.1351		519.9378		527.6431		534.4593		540.3938		548.1642		556.7842		565.7216		577.0405		587.1051		599.0817		611.0509		623.9203		638.9629		654.6278		672.0425		689.2601		707.9769		725.8648		742.9495		754.3920		758.4387		753.5211		743.7583		723.2119		696.8772		670.6507		644.4854		617.8036		597.2520		576.8785		558.9249		545.6140		533.1258		525.2956		515.7110		507.3394		502.1914		498.0254		492.1049		489.1879		485.8662		481.4641		480.5745		476.8504		474.0438		472.9519		472.2366		469.9887		468.2280		467.4212		465.9403		464.3597		
 0.600		426.7207		427.6830		429.5283		431.2922		432.1450		433.6357		435.6591		435.7157		437.5675		439.3214		441.3886		443.0269		442.5412		445.8914		447.8054		449.0164		450.7439		455.2883		456.9822		457.2582		460.5607		463.4735		464.8907		466.8375		469.8349		473.0637		474.5634		479.3881		481.1416		484.4866		489.6311		492.1903		497.6997		500.9449		505.6099		510.4244		516.0189		519.7905		527.5202		534.2875		540.2409		547.9809		556.5940		565.4875		576.7296		586.7601		598.7330		610.6261		623.3561		638.2592		653.7911		671.1062		688.2021		706.8684		724.7472		741.9467		753.4624		757.8675		753.3753		744.0305		723.9596		697.8860		671.7849		645.6672		618.9943		598.3241		577.9149		559.8647		546.3547		533.8974		525.8453		516.2163		507.7814		502.5973		498.3367		492.4001		489.4264		486.0677		481.6032		480.7007		476.9562		474.1501		473.0225		472.2872		470.0434		468.2531		467.4031		465.9557		464.3292		
 0.610		426.7750		427.7891		429.5695		431.3520		432.1985		433.6542		435.7087		435.7940		437.5921		439.3042		441.4233		443.0538		442.5722		445.9166		447.8443		449.0076		450.7280		455.2671		456.9833		457.2536		460.5734		463.4713		464.8680		466.8312		469.7745		473.0247		474.5314		479.3600		481.1661		484.4403		489.5718		492.0775		497.6525		500.8310		505.4004		510.2948		515.9028		519.6433		527.3972		534.1158		540.0880		547.7976		556.4038		565.2535		576.4188		586.4151		598.3851		610.2354		622.9056		637.7135		653.1393		670.3375		687.2076		705.7599		723.6295		740.9440		752.5328		757.2964		753.2295		744.3026		724.7072		698.8949		672.9192		646.8489		620.1851		599.3963		578.9514		560.8045		547.0955		534.6679		526.3950		516.7216		508.2436		502.9923		498.6445		492.6908		489.6634		486.2815		481.7468		480.8291		477.0633		474.2564		473.0931		472.3379		470.0981		468.2781		467.3853		465.9712		464.2990		
 0.620		426.8293		427.8951		429.6108		431.4117		432.2520		433.6727		435.7583		435.8724		437.6168		439.2870		441.4580		443.0807		442.6032		445.9419		447.8833		448.9989		450.7120		455.2458		456.9844		457.2490		460.5861		463.4691		464.8453		466.8249		469.7142		472.9856		474.4995		479.3320		481.1906		484.3940		489.5125		491.9647		497.6054		500.7171		505.1909		510.1652		515.7866		519.4961		527.2742		533.9441		539.9350		547.6142		556.2136		565.0194		576.1079		586.0701		598.0372		609.8447		622.4550		637.1679		652.5144		669.7069		686.4792		704.9194		722.6154		739.9412		751.6032		756.7252		753.0837		744.5748		725.4549		699.9037		674.0534		648.0306		621.3758		600.4684		579.9879		561.7443		547.8362		535.4385		526.9447		517.2270		508.7136		503.3821		498.9523		492.9814		489.8894		486.4954		481.8904		480.9583		477.1706		474.3554		473.1647		472.3766		470.1390		468.3124		467.3684		465.9874		464.2839		
 0.630		426.8837		428.0011		429.6520		431.4714		432.3055		433.6911		435.8079		435.9507		437.6414		439.2699		441.4927		443.1077		442.6342		445.9671		447.9222		448.9901		450.6961		455.2245		456.9855		457.2444		460.5988		463.4669		464.8226		466.8186		469.6538		472.9466		474.4675		479.3039		481.2151		484.3476		489.4533		491.8519		497.5583		500.6032		504.9814		510.0356		515.6705		519.3489		527.1512		533.7724		539.7821		547.4309		556.0235		564.7854		575.7970		585.7251		597.6893		609.4540		622.0045		636.6222		651.8895		669.0763		685.7508		704.1544		721.8258		739.0816		750.7141		756.1540		752.9379		744.8469		726.2025		700.9125		675.1877		649.2124		622.5666		601.5406		581.0244		562.6841		548.5770		536.2090		527.4944		517.7323		509.1835		503.7720		499.2601		493.2720		490.1154		486.7092		482.0340		481.0875		477.2778		474.4495		473.2368		472.4092		470.1674		468.3616		467.3514		466.0132		464.2687		
 0.640		426.9380		428.1072		429.6933		431.5312		432.3590		433.7096		435.8575		436.0290		437.6660		439.2527		441.5274		443.1346		442.6652		445.9923		447.9612		448.9814		450.6801		455.2032		456.9866		457.2398		460.6115		463.4646		464.8000		466.8124		469.5934		472.9076		474.4355		479.2758		481.2396		484.3013		489.3940		491.7391		497.5111		500.4894		504.7719		509.9060		515.5543		519.2016		527.0282		533.6006		539.6291		547.2476		555.8333		564.5514		575.4862		585.3801		597.3414		609.0634		621.5540		636.0765		651.2647		668.4458		685.0224		703.3895		721.0362		738.2466		749.9501		755.5680		752.7827		745.1190		726.9502		701.9214		676.3219		650.3941		623.7573		602.6127		582.0608		563.6239		549.3177		536.9796		528.0441		518.2376		509.6535		504.1619		499.5680		493.5626		490.3415		486.9230		482.1776		481.2167		477.3851		474.5436		473.3088		472.4419		470.1959		468.4109		467.3345		466.0390		464.2536		
 0.650		426.9923		428.2132		429.7345		431.5909		432.4125		433.7280		435.9070		436.1074		437.6907		439.2355		441.5621		443.1616		442.6962		446.0175		448.0001		448.9726		450.6642		455.1820		456.9877		457.2352		460.6242		463.4624		464.7773		466.8061		469.5331		472.8686		474.4035		479.2478		481.2641		484.2550		489.3347		491.6263		497.4640		500.3755		504.5624		509.7764		515.4382		519.0544		526.9052		533.4289		539.4762		547.0643		555.6431		564.3173		575.1753		585.0351		596.9936		608.6727		621.1034		635.5309		650.6398		667.8152		684.2940		702.6245		720.2465		737.4116		749.1862		754.9762		752.5240		745.2729		727.6978		702.9302		677.4561		651.5759		624.9481		603.6849		583.0973		564.5636		550.0585		537.7502		528.5938		518.7429		510.1234		504.5517		499.8758		493.8532		490.5675		487.1368		482.3213		481.3459		477.4924		474.6377		473.3808		472.4745		470.2243		468.4602		467.3176		466.0648		464.2385		
 0.660		427.0466		428.3192		429.7758		431.6507		432.4660		433.7465		435.9566		436.1857		437.7153		439.2183		441.5969		443.1885		442.7272		446.0427		448.0391		448.9639		450.6482		455.1607		456.9889		457.2306		460.6369		463.4602		464.7546		466.7998		469.4727		472.8296		474.3715		479.2197		481.2886		484.2087		489.2754		491.5135		497.4169		500.2616		504.3529		509.6468		515.3220		518.9072		526.7822		533.2572		539.3232		546.8809		555.4530		564.0833		574.8644		584.6901		596.6457		608.2820		620.6529		634.9852		650.0149		667.1846		683.5656		701.8596		719.4569		736.5767		748.4222		754.3844		752.2654		745.2241		728.1584		703.9120		678.5904		652.7576		626.1388		604.7570		584.1338		565.5034		550.7992		538.5207		529.1435		519.2483		510.5934		504.9416		500.1836		494.1439		490.7935		487.3506		482.4649		481.4751		477.5997		474.7319		473.4528		472.5071		470.2528		468.5094		467.3006		466.0906		464.2233		
 0.670		427.1009		428.3948		429.8170		431.7047		432.5242		433.7649		436.0046		436.2610		437.7457		439.2011		441.6316		443.2154		442.7582		446.0679		448.0780		448.9551		450.6323		455.1394		456.9900		457.2260		460.6496		463.4580		464.7319		466.7935		469.4124		472.7906		474.3396		479.1916		481.3132		484.1623		489.2162		491.4007		497.3698		500.1477		504.1434		509.5172		515.2059		518.7599		526.6592		533.0855		539.1703		546.6976		555.2628		563.8492		574.5536		584.3451		596.2978		607.8913		620.2024		634.4395		649.3901		666.5540		682.8373		701.0946		718.6673		735.7417		747.6583		753.7926		752.0067		745.1754		728.4893		704.5647		679.6405		653.9393		627.3296		605.8292		585.1702		566.4432		551.5400		539.2913		529.6932		519.7536		511.0634		505.3315		500.4914		494.4345		491.0196		487.5645		482.6085		481.6042		477.7069		474.8260		473.5249		472.5398		470.2813		468.5587		467.2837		466.1164		464.2082		
 0.680		427.1597		428.4545		429.8529		431.7392		432.5959		433.7854		436.0086		436.3033		437.8000		439.1839		441.6663		443.2360		442.7892		446.0931		448.1170		448.9463		450.6163		455.1248		456.9911		457.2160		460.6773		463.4558		464.7225		466.7873		469.3520		472.7516		474.3076		479.1636		481.3377		484.1160		489.1569		491.2879		497.3226		500.0339		503.9339		509.3876		515.0897		518.6127		526.5362		532.9137		539.0173		546.5143		555.0726		563.6152		574.2427		584.0001		595.9499		607.5007		619.7518		633.8939		648.7652		665.9235		682.1089		700.3296		717.8776		734.9067		746.8943		753.2007		751.7481		745.1267		728.8202		705.2174		680.5128		655.0376		628.5203		606.9013		586.2067		567.3830		552.2807		540.0618		530.2429		520.2589		511.5333		505.7213		500.7992		494.7251		491.2456		487.7783		482.7521		481.7334		477.8142		474.9201		473.5969		472.5724		470.3097		468.6079		467.2667		466.1421		464.1930		
 0.690		427.2228		428.5142		429.8822		431.7736		432.6675		433.8189		436.0127		436.3455		437.8543		439.2093		441.6961		443.2560		442.8247		446.1216		448.1385		448.9428		450.6084		455.1185		456.9898		457.2015		460.7398		463.4502		464.7307		466.7810		469.2917		472.7126		474.2756		479.1200		481.3622		484.0697		489.0976		491.1996		497.2755		499.9200		503.7309		509.2580		514.9736		518.4655		526.4133		532.7420		538.8644		546.3310		554.8824		563.3812		573.9318		583.6551		595.6020		607.1100		619.3013		633.3482		648.1403		665.2929		681.3805		699.5647		717.0880		734.0717		746.1304		752.6089		751.4894		745.0780		729.1512		705.8702		681.3851		656.0767		629.5865		607.9681		587.2432		568.3228		553.0214		540.8324		530.7926		520.7642		512.0033		506.1112		501.1071		495.0157		491.4716		487.9921		482.8957		481.8626		477.9215		475.0142		473.6689		472.6050		470.3382		468.6572		467.2498		466.1679		464.1779		
 0.700		427.2860		428.5739		429.9116		431.8081		432.7391		433.8523		436.0167		436.3877		437.9087		439.2388		441.7243		443.2761		442.8630		446.1516		448.1372		448.9441		450.6166		455.1122		456.9861		457.1870		460.8023		463.4120		464.7389		466.7714		469.2482		472.6706		474.2422		479.0719		481.3375		484.0502		489.0418		491.1290		497.2317		499.8140		503.5477		509.1473		514.8574		518.3522		526.2747		532.5823		538.7186		546.1493		554.6923		563.1471		573.6209		583.3101		595.2542		606.7193		618.8508		632.8025		647.5155		664.6623		680.6521		698.7997		716.2984		733.2367		745.3664		752.0171		751.2308		745.0293		729.4821		706.5229		682.2573		657.1158		630.6495		609.0264		588.2511		569.2651		553.7622		541.6029		531.3423		521.2696		512.4732		506.5011		501.4149		495.3063		491.6977		488.2059		483.0394		481.9918		478.0288		475.1083		473.7409		472.6377		470.3666		468.7064		467.2329		466.1937		464.1627		
 0.710		427.3491		428.6337		429.9409		431.8426		432.8107		433.8857		436.0207		436.4299		437.9630		439.2683		441.7525		443.2961		442.9013		446.1817		448.1358		448.9454		450.6247		455.1059		456.9825		457.1725		460.8648		463.3738		464.7472		466.7618		469.2070		472.6279		474.2084		479.0237		481.2713		484.0348		488.9982		491.0584		497.1913		499.7345		503.3645		509.0438		514.7408		518.2406		526.1291		532.4381		538.5801		545.9710		554.5021		562.9039		573.3101		582.9651		594.9063		606.3168		618.4002		632.2569		646.8906		664.0318		679.9237		698.0347		715.5087		732.4017		744.6025		751.4253		750.9721		744.9805		729.8130		707.1756		683.1296		658.1550		631.7126		610.0847		589.2530		570.2127		554.6473		542.3893		531.9088		521.7749		512.9432		506.8909		501.7227		495.5969		491.9237		488.4197		483.1830		482.1210		478.1360		475.2025		473.8130		472.6703		470.3951		468.7557		467.2159		466.2195		464.1476		
 0.720		427.4123		428.6934		429.9703		431.8770		432.8823		433.9191		436.0248		436.4722		438.0173		439.2978		441.7806		443.3162		442.9396		446.2117		448.1345		448.9467		450.6329		455.0995		456.9789		457.1580		460.9272		463.3356		464.7554		466.7522		469.1658		472.5852		474.1745		478.9755		481.2052		484.0194		488.9545		490.9878		497.1510		499.6549		503.1813		508.9402		514.6237		518.1291		525.9835		532.2939		538.4416		545.7927		554.3138		562.6580		573.0114		582.6252		594.5569		605.8770		617.9497		631.7256		646.2657		663.4012		679.1953		697.2698		714.7191		731.5668		743.8385		750.8335		750.7134		744.9318		730.1439		707.8284		684.0019		659.1941		632.7757		611.1430		590.2550		571.1602		555.5496		543.1940		532.6008		522.3458		513.4344		507.3155		502.0367		495.8876		492.1497		488.6336		483.3266		482.2502		478.2433		475.2966		473.8850		472.7029		470.4235		468.8049		467.1990		466.2453		464.1324		
 0.730		427.4754		428.7531		429.9997		431.9115		432.9540		433.9526		436.0288		436.5144		438.0716		439.3272		441.8088		443.3362		442.9778		446.2417		448.1331		448.9480		450.6410		455.0932		456.9752		457.1435		460.9897		463.2974		464.7636		466.7426		469.1245		472.5425		474.1407		478.9274		481.1390		484.0040		488.9108		490.9172		497.1107		499.5754		502.9981		508.8367		514.5067		518.0175		525.8379		532.1497		538.3032		545.6144		554.1256		562.4122		572.7229		582.2980		594.2040		605.4371		617.5031		631.2037		645.6408		662.7706		678.4556		696.4919		713.9294		730.7318		743.0746		750.2416		750.4548		744.8831		730.4749		708.4811		684.8741		660.2333		633.8387		612.2013		591.2569		572.1077		556.4520		543.9988		533.2929		522.9322		513.9427		507.8347		502.4837		496.2895		492.4966		488.9315		483.5452		482.4207		478.3713		475.3921		473.9570		472.7356		470.4520		468.8542		467.1820		466.2711		464.1173		
 0.740		427.5386		428.8128		430.0290		431.9459		433.0256		433.9860		436.0328		436.5566		438.1259		439.3567		441.8370		443.3563		443.0161		446.2718		448.1317		448.9492		450.6491		455.0869		456.9716		457.1290		461.0522		463.2592		464.7719		466.7330		469.0833		472.4998		474.1069		478.8792		481.0728		483.9886		488.8672		490.8466		497.0703		499.4958		502.8149		508.7331		514.3896		517.9059		525.6923		532.0055		538.1647		545.4361		553.9373		562.1664		572.4344		581.9708		593.8511		604.9973		617.0611		630.6818		645.0268		662.1576		677.7118		695.6971		713.1261		729.8994		742.3144		749.6498		750.1961		744.8344		730.8058		709.1338		685.7464		661.2724		634.9018		613.2597		592.2589		573.0552		557.3543		544.8035		533.9849		523.5186		514.4510		508.3539		502.9308		496.7137		492.9033		489.3089		483.8815		482.7065		478.6331		475.6367		474.1653		472.9118		470.6035		468.9516		467.2747		466.3592		464.1841		
 0.750		427.6018		428.8725		430.0584		431.9804		433.0972		434.0194		436.0369		436.5989		438.1803		439.3862		441.8652		443.3763		443.0544		446.3018		448.1304		448.9505		450.6573		455.0806		456.9679		457.1145		461.1147		463.2210		464.7801		466.7234		469.0421		472.4571		474.0731		478.8310		481.0066		483.9732		488.8235		490.7759		497.0300		499.4162		502.6318		508.6296		514.2726		517.7943		525.5467		531.8613		538.0262		545.2578		553.7491		561.9206		572.1459		581.6436		593.4981		604.5575		616.6191		630.1600		644.4173		661.5534		676.9679		694.9022		712.3124		729.0991		741.6101		749.0664		749.9375		744.7857		731.1367		709.7866		686.6187		662.3115		635.9649		614.3180		593.2609		574.0028		558.2566		545.6083		534.6770		524.1051		514.9593		508.8731		503.3779		497.1378		493.3100		489.6863		484.2178		482.9922		478.8949		475.8814		474.3888		473.1196		470.7982		469.0738		467.4437		466.5050		464.3454		
 0.760		427.6649		428.9322		430.0877		432.0148		433.1688		434.0528		436.0409		436.6411		438.2346		439.4157		441.8934		443.3964		443.0927		446.3319		448.1290		448.9518		450.6654		455.0743		456.9643		457.1000		461.1772		463.1828		464.7884		466.7138		469.0008		472.4143		474.0393		478.7829		480.9404		483.9578		488.7798		490.7053		496.9897		499.3367		502.4486		508.5260		514.1555		517.6827		525.4011		531.7171		537.8877		545.0795		553.5608		561.6747		571.8574		581.3164		593.1452		604.1177		616.1771		629.6381		643.8078		660.9492		676.2241		694.1073		711.4987		728.2989		740.9058		748.5476		749.6788		744.7369		731.4676		710.4393		687.4909		663.3507		637.0279		615.3763		594.2628		574.9503		559.1590		546.4130		535.3690		524.6915		515.4677		509.3923		503.8250		497.5619		493.7167		490.0636		484.5540		483.2780		479.1567		476.1260		474.6123		473.3274		470.9930		469.1959		467.6126		466.6508		464.5066		
 0.770		427.7281		428.9919		430.1171		432.0493		433.2404		434.0863		436.0449		436.6833		438.2889		439.4452		441.9215		443.4164		443.1309		446.3619		448.1277		448.9531		450.6736		455.0679		456.9607		457.0856		461.2396		463.1446		464.7966		466.7042		468.9596		472.3716		474.0054		478.7347		480.8742		483.9424		488.7362		490.6347		496.9494		499.2571		502.2654		508.4225		514.0385		517.5711		525.2555		531.5729		537.7493		544.9012		553.3726		561.4289		571.5689		580.9892		592.7922		603.6779		615.7351		629.1163		643.1983		660.3450		675.4802		693.3125		710.6850		727.4986		740.2015		748.0289		749.3376		744.7743		731.8189		711.0920		688.3632		664.3898		638.0910		616.4346		595.2648		575.8978		560.0613		547.2178		536.0611		525.2779		515.9760		509.9115		504.2720		497.9861		494.1235		490.4410		484.8903		483.5637		479.4185		476.3707		474.8358		473.5352		471.1878		469.3181		467.7816		466.7966		464.6678		
 0.780		427.7912		429.0516		430.1465		432.0838		433.3121		434.1197		436.0489		436.7255		438.3432		439.4747		441.9497		443.4365		443.1692		446.3919		448.1263		448.9544		450.6817		455.0616		456.9570		457.0711		461.3021		463.1064		464.8048		466.6946		468.9183		472.3289		473.9716		478.6865		480.8081		483.9270		488.6925		490.5641		496.9090		499.1775		502.0822		508.3189		513.9215		517.4595		525.1099		531.4287		537.6108		544.7229		553.1843		561.1831		571.2804		580.6620		592.4393		603.2381		615.2932		628.5944		642.5888		659.7408		674.7364		692.5176		709.8713		726.6984		739.4972		747.5101		748.9658		744.8191		732.2617		711.7737		689.2355		665.4290		639.1541		617.4929		596.2667		576.8453		560.9637		548.0225		536.7531		525.8643		516.4843		510.4307		504.7191		498.4102		494.5302		490.8184		485.2266		483.8495		479.6803		476.6153		475.0594		473.7430		471.3825		469.4403		467.9505		466.9423		464.8290		
 0.790		427.8544		429.1113		430.1758		432.1182		433.3837		434.1531		436.0530		436.7678		438.3975		439.5042		441.9779		443.4566		443.2075		446.4220		448.1250		448.9557		450.6899		455.0553		456.9534		457.0566		461.3646		463.0682		464.8131		466.6850		468.8771		472.2862		473.9378		478.6384		480.7419		483.9116		488.6488		490.4935		496.8687		499.0980		501.8990		508.2153		513.8044		517.3479		524.9643		531.2845		537.4723		544.5446		552.9961		560.9372		570.9919		580.3348		592.0863		602.7983		614.8512		628.0725		641.9794		659.1366		673.9925		691.7228		709.0576		725.8981		738.7929		746.9914		748.5940		744.8639		732.7045		712.4841		690.1424		666.4704		640.2171		618.5513		597.2687		577.7929		561.8660		548.8272		537.4452		526.4508		516.9926		510.9499		505.1662		498.8344		494.9369		491.1958		485.5628		484.1352		479.9420		476.8600		475.2829		473.9508		471.5773		469.5625		468.1195		467.0881		464.9902		
 0.800		427.8808		429.1311		430.1951		432.1388		433.4286		434.1825		436.0571		436.7974		438.4426		439.5296		442.0040		443.4766		443.2458		446.4520		448.1236		448.9569		450.6980		455.0490		456.9498		457.0421		461.4271		463.0300		464.8213		466.6754		468.8359		472.2435		473.9040		478.5902		480.6757		483.8962		488.6051		490.4229		496.8284		499.0184		501.7159		508.1118		513.6874		517.2363		524.8187		531.1403		537.3338		544.3663		552.8078		560.6914		570.7035		580.0075		591.7334		602.3585		614.4092		627.5507		641.3699		658.5324		673.2487		690.9279		708.2439		725.0979		738.0886		746.4727		748.2222		744.9088		733.1473		713.1945		691.0601		667.5168		641.2890		619.6096		598.2706		578.7404		562.7683		549.6320		538.1372		527.0372		517.5010		511.4691		505.6133		499.2585		495.3436		491.5731		485.8991		484.4209		480.2038		477.1046		475.5064		474.1586		471.7721		469.6847		468.2885		467.2339		465.1515		
 0.810		427.8695		429.1031		430.2002		432.1358		433.4180		434.2014		436.0614		436.7716		438.4281		439.5105		441.9721		443.4624		443.2200		446.4291		448.1198		448.9428		450.6644		455.0316		456.9436		457.0337		461.4398		462.9991		464.8120		466.6578		468.7976		472.2004		473.8702		478.5420		480.6095		483.8807		488.5615		490.3523		496.7880		498.9389		501.5327		508.0082		513.5703		517.1247		524.6731		530.9960		537.1953		544.1880		552.6196		560.4456		570.4150		579.6803		591.3804		601.9187		613.9672		627.0288		640.7604		657.9282		672.5048		690.1331		707.4302		724.2976		737.3843		745.9539		747.8504		744.9536		733.5902		713.9049		691.9779		668.5632		642.3635		620.6523		599.2726		579.6879		563.6707		550.4367		538.8293		527.6236		518.0093		511.9883		506.0603		499.6827		495.7503		491.9505		486.2354		484.7067		480.4656		477.3493		475.7299		474.3664		471.9668		469.8069		468.4574		467.3797		465.3127		
 0.820		427.8583		429.0751		430.2053		432.1328		433.4074		434.2203		436.0657		436.7458		438.4136		439.4915		441.9401		443.4480		443.1905		446.3996		448.1155		448.9239		450.6129		455.0079		456.9355		457.0311		461.3916		462.9798		464.7663		466.6165		468.7739		472.1529		473.8225		478.4865		480.5562		483.8217		488.4760		490.2925		496.7239		498.8530		501.3950		507.9036		513.4528		517.0131		524.5275		530.8518		537.0569		544.0097		552.4313		560.1998		570.1265		579.3531		591.0275		601.4789		613.5252		626.5069		640.1509		657.3240		671.7610		689.3382		706.6165		723.4974		736.6800		745.4352		747.4787		744.9984		734.0330		714.6153		692.8956		669.6097		643.4379		621.6941		600.2838		580.5953		564.5786		551.2415		539.5213		528.2100		518.5176		512.5075		506.5074		500.1068		496.1570		492.3279		486.5717		484.9924		480.7274		477.5939		475.9534		474.5742		472.1616		469.9291		468.6264		467.5255		465.4739		
 0.830		427.8471		429.0471		430.2104		432.1298		433.3968		434.2391		436.0700		436.7200		438.3991		439.4724		441.9082		443.4336		443.1610		446.3701		448.1112		448.9049		450.5613		454.9843		456.9275		457.0285		461.3433		462.9604		464.7206		466.5751		468.7501		472.1054		473.7749		478.4304		480.5054		483.7480		488.3689		490.2405		496.6353		498.7577		501.3664		507.7941		513.3266		516.9213		524.3787		530.7049		536.8940		543.8263		552.2361		559.9539		569.8380		579.0259		590.6745		601.0391		613.0832		625.9851		639.5414		656.7197		671.0172		688.5434		705.8028		722.6971		735.9757		744.9164		747.1069		745.0433		734.4758		715.3257		693.8133		670.6561		644.5124		622.7358		601.3393		581.4939		565.5041		552.0462		540.1871		528.7965		519.0259		513.0267		506.9545		500.5309		496.5637		492.7053		486.9079		485.2782		480.9892		477.8386		476.1769		474.7820		472.3564		470.0513		468.7953		467.6713		465.6351		
 0.840		427.8359		429.0191		430.2155		432.1267		433.3861		434.2580		436.0742		436.6942		438.3846		439.4533		441.8763		443.4192		443.1315		446.3406		448.1070		448.8859		450.5098		454.9607		456.9195		457.0260		461.2951		462.9410		464.6749		466.5338		468.7264		472.0579		473.7272		478.3742		480.4547		483.6744		488.2618		490.1886		496.5467		498.6624		501.3378		507.6845		513.2004		516.8311		524.2289		530.5565		536.7081		543.6333		552.0074		559.6966		569.5731		578.7126		590.3251		600.6135		612.6412		625.4632		638.9320		656.1155		670.2733		687.7485		704.9891		721.8969		735.2714		744.3977		746.7351		745.0881		734.9187		716.0361		694.7311		671.7026		645.5868		623.7776		602.3949		582.3925		566.4297		552.8385		540.8407		529.3899		519.5343		513.5157		507.4016		500.9551		496.9692		493.0826		487.2442		485.5639		481.2509		478.0832		476.4004		474.9898		472.5511		470.1735		468.9643		467.8170		465.7963		
 0.850		427.8247		428.9911		430.2206		432.1237		433.3755		434.2768		436.0785		436.6684		438.3701		439.4343		441.8444		443.4048		443.1020		446.3111		448.1027		448.8669		450.4582		454.9370		456.9114		457.0234		461.2469		462.9217		464.6292		466.4924		468.7027		472.0104		473.6796		478.3180		480.4040		483.6008		488.1547		490.1366		496.4581		498.5671		501.3091		507.5750		513.0742		516.7409		524.0791		530.4081		536.5221		543.4404		551.7787		559.4392		569.3134		578.4083		589.9815		600.2558		612.2334		624.9946		638.3445		655.5116		669.5295		686.9536		704.1754		721.0966		734.5672		743.8790		746.3633		745.1329		735.3615		716.7465		695.6488		672.7490		646.6612		624.8194		603.4504		583.2912		567.3552		553.6253		541.4944		530.0140		520.0559		514.0021		507.8586		501.3972		497.3546		493.4396		487.5952		485.8496		481.5042		478.3759		476.6234		475.1976		472.7450		470.2957		469.1332		467.9628		465.9576		
 0.860		427.8135		428.9631		430.2257		432.1207		433.3649		434.2957		436.0828		436.6426		438.3556		439.4152		441.8125		443.3904		443.0725		446.2816		448.0984		448.8479		450.4066		454.9134		456.9034		457.0209		461.1987		462.9023		464.5835		466.4510		468.6790		471.9629		473.6319		478.2618		480.3533		483.5271		488.0476		490.0847		496.3696		498.4718		501.2805		507.4654		512.9480		516.6507		523.9294		530.2597		536.3362		543.2474		551.5500		559.1817		569.0538		578.1040		589.6379		599.8982		611.8278		624.5502		637.7987		654.9150		668.8548		686.1941		703.3617		720.2964		733.8629		743.3602		745.9916		745.1778		735.8043		717.4569		696.5665		673.7954		647.7357		625.8611		604.5059		584.1898		568.2808		554.4121		542.1480		530.6380		520.5867		514.4884		508.3408		501.8397		497.7400		493.7948		487.9581		486.1368		481.7506		478.7006		476.8429		475.3969		472.9038		470.4179		469.3022		468.1086		466.1188		
 0.870		427.8023		428.9351		430.2308		432.1177		433.3543		434.3145		436.0871		436.6168		438.3411		439.3961		441.7806		443.3760		443.0431		446.2521		448.0941		448.8290		450.3551		454.8898		456.8954		457.0183		461.1504		462.8829		464.5378		466.4097		468.6552		471.9154		473.5843		478.2056		480.3025		483.4535		487.9405		490.0327		496.2810		498.3766		501.2519		507.3559		512.8219		516.5606		523.7796		530.1114		536.1503		543.0545		551.3214		558.9243		568.7941		577.7996		589.2943		599.5405		611.4223		624.1057		637.2528		654.3185		668.2103		685.5091		702.5631		719.4887		733.1581		742.8415		745.6198		745.2226		736.2472		718.1673		697.4843		674.8419		648.8101		626.9029		605.5614		585.0884		569.2063		555.1989		542.8017		531.2621		521.1175		514.9747		508.8230		502.2822		498.1254		494.1500		488.3211		486.4272		481.9970		479.0253		477.0624		475.5963		473.0627		470.5203		469.4823		468.2631		466.2760		
 0.880		427.7911		428.9071		430.2360		432.1147		433.3437		434.3334		436.0914		436.5910		438.3266		439.3770		441.7487		443.3616		443.0136		446.2226		448.0898		448.8100		450.3035		454.8661		456.8873		457.0157		461.1022		462.8635		464.4921		466.3683		468.6315		471.8679		473.5367		478.1494		480.2518		483.3798		487.8335		489.9808		496.1924		498.2813		501.2233		507.2463		512.6957		516.4704		523.6299		529.9630		535.9644		542.8615		551.0927		558.6669		568.5344		577.4953		588.9507		599.1828		611.0167		623.6612		636.7070		653.7220		667.5658		684.8240		701.7658		718.6726		732.3789		742.2042		745.2480		745.2674		736.6900		718.8777		698.4020		675.8883		649.8846		627.9447		606.6169		585.9870		570.1319		555.9856		543.4553		531.8862		521.6483		515.4611		509.3053		502.7247		498.5108		494.5051		488.6841		486.7177		482.2434		479.3500		477.2820		475.7957		473.2216		470.6178		469.6641		468.4231		466.4304		
 0.890		427.7799		428.8791		430.2411		432.1116		433.3331		434.3523		436.0957		436.5652		438.3121		439.3580		441.7168		443.3472		442.9841		446.1930		448.0855		448.7910		450.2520		454.8425		456.8793		457.0132		461.0540		462.8442		464.4464		466.3270		468.6078		471.8204		473.4890		478.0932		480.2011		483.3062		487.7264		489.9288		496.1038		498.1860		501.1947		507.1367		512.5695		516.3802		523.4801		529.8146		535.7785		542.6686		550.8640		558.4095		568.2747		577.1910		588.6070		598.8252		610.6111		623.2168		636.1612		653.1255		666.9213		684.1390		700.9685		717.8565		731.5997		741.4750		744.7150		745.1668		737.1328		719.5881		699.3197		676.9347		650.9590		628.9864		607.6725		586.8857		571.0574		556.7724		544.1090		532.5103		522.1791		515.9474		509.7875		503.1672		498.8962		494.8603		489.0471		487.0081		482.4898		479.6746		477.5015		475.9950		473.3804		470.7154		469.8459		468.5830		466.5849		
 0.900		427.7686		428.8511		430.2462		432.1086		433.3225		434.3711		436.1000		436.5394		438.2976		439.3389		441.6849		443.3328		442.9546		446.1635		448.0812		448.7720		450.2004		454.8189		456.8712		457.0106		461.0058		462.8248		464.4007		466.2856		468.5840		471.7729		473.4414		478.0371		480.1504		483.2325		487.6193		489.8768		496.0153		498.0907		501.1661		507.0272		512.4433		516.2900		523.3304		529.6662		535.5925		542.4756		550.6353		558.1521		568.0151		576.8866		588.2634		598.4675		610.2056		622.7723		635.6153		652.5289		666.2768		683.4539		700.1712		717.0404		730.8205		740.7457		744.1774		744.7782		737.2392		720.2900		700.2375		677.9812		652.0335		630.0282		608.7280		587.7843		571.9830		557.5592		544.7626		533.1343		522.7099		516.4337		510.2698		503.6097		499.2816		495.2155		489.4101		487.2986		482.7362		479.9993		477.7210		476.1944		473.5393		470.8129		470.0277		468.7429		466.7394		
 0.910		427.7574		428.8231		430.2513		432.1056		433.3118		434.3900		436.1043		436.5136		438.2831		439.3198		441.6529		443.3184		442.9251		446.1340		448.0769		448.7531		450.1488		454.7952		456.8632		457.0080		460.9575		462.8054		464.3549		466.2442		468.5603		471.7255		473.3937		477.9809		480.0997		483.1589		487.5122		489.8249		495.9267		497.9954		501.1375		506.9176		512.3171		516.1998		523.1806		529.5178		535.4066		542.2827		550.4066		557.8946		567.7554		576.5823		587.9198		598.1098		609.8000		622.3279		635.0695		651.9324		665.6323		682.7689		699.3738		716.2243		730.0413		740.0165		743.6397		744.3896		737.1758		720.4982		700.9753		679.0276		653.1079		631.0700		609.7835		588.6829		572.9085		558.3460		545.4163		533.7584		523.2406		516.9201		510.7520		504.0522		499.6670		495.5707		489.7731		487.5890		482.9826		480.3240		477.9406		476.3938		473.6982		470.9105		470.2095		468.9029		466.8938		
 0.920		427.7462		428.7951		430.2564		432.1026		433.3012		434.4088		436.1086		436.4878		438.2686		439.3008		441.6210		443.3041		442.8956		446.1045		448.0727		448.7341		450.0973		454.7716		456.8552		457.0055		460.9093		462.7861		464.3092		466.2029		468.5366		471.6780		473.3461		477.9247		480.0489		483.0853		487.4051		489.7729		495.8381		497.9001		501.1088		506.8081		512.1909		516.1096		523.0308		529.3694		535.2207		542.0897		550.1780		557.6372		567.4957		576.2780		587.5762		597.7521		609.3944		621.8834		634.5236		651.3359		664.9877		682.0838		698.5765		715.4082		729.2621		739.2873		743.1020		744.0010		737.1124		720.7064		701.4348		679.7284		654.1740		632.1117		610.8390		589.5815		573.8340		559.1328		546.0699		534.3825		523.7714		517.4064		511.2342		504.4947		500.0524		495.9259		490.1360		487.8794		483.2290		480.6487		478.1601		476.5931		473.8570		471.0081		470.3913		469.0628		467.0483		
 0.930		427.7350		428.7671		430.2615		432.0996		433.2906		434.4277		436.1129		436.4620		438.2541		439.2817		441.5891		443.2897		442.8661		446.0750		448.0684		448.7151		450.0457		454.7480		456.8471		457.0029		460.8611		462.7667		464.2635		466.1615		468.5128		471.6305		473.2984		477.8685		479.9982		483.0116		487.2980		489.7210		495.7495		497.8048		501.0802		506.6985		512.0648		516.0194		522.8811		529.2210		535.0348		541.8968		549.9493		557.3798		567.2361		575.9736		587.2326		597.3945		608.9889		621.4389		633.9778		650.7393		664.3432		681.3988		697.7792		714.5922		728.4829		738.5580		742.5643		743.6124		737.0490		720.9146		701.8943		680.3239		654.9652		633.0929		611.8945		590.4802		574.7596		559.9196		546.7236		535.0066		524.3022		517.8927		511.7165		504.9372		500.4378		496.2811		490.4990		488.1699		483.4754		480.9734		478.3796		476.7925		474.0159		471.1056		470.5731		469.2228		467.2028		
 0.940		427.7238		428.7391		430.2666		432.0965		433.2800		434.4465		436.1172		436.4362		438.2396		439.2626		441.5572		443.2753		442.8366		446.0455		448.0641		448.6961		449.9942		454.7243		456.8391		457.0004		460.8129		462.7473		464.2178		466.1202		468.4891		471.5830		473.2508		477.8123		479.9475		482.9380		487.1909		489.6690		495.6610		497.7095		501.0516		506.5890		511.9386		515.9292		522.7313		529.0727		534.8489		541.7038		549.7206		557.1224		566.9764		575.6693		586.8890		597.0368		608.5833		620.9945		633.4319		650.1428		663.6987		680.7137		696.9819		713.7761		727.7037		737.8288		742.0266		743.2238		736.9856		721.1228		702.3539		680.9194		655.7563		633.9987		612.8041		591.3678		575.6851		560.7064		547.3772		535.6306		524.8330		518.3791		512.1987		505.3797		500.8231		496.6362		490.8620		488.4603		483.7218		481.2981		478.5992		476.9919		474.1747		471.2032		470.7549		469.3827		467.3572		
 0.950		427.7126		428.7111		430.2717		432.0935		433.2694		434.4654		436.1215		436.4104		438.2251		439.2436		441.5253		443.2609		442.8071		446.0160		448.0598		448.6771		449.9426		454.7007		456.8310		456.9978		460.7647		462.7279		464.1721		466.0788		468.4654		471.5355		473.2032		477.7561		479.8968		482.8643		487.0838		489.6171		495.5724		497.6142		501.0230		506.4794		511.8124		515.8390		522.5816		528.9243		534.6629		541.5109		549.4919		556.8649		566.7167		575.3650		586.5454		596.6791		608.1777		620.5500		632.8861		649.5463		663.0542		680.0287		696.1846		712.9600		726.9245		737.0996		741.4890		742.8352		736.9222		721.3310		702.8134		681.5148		656.5475		634.9046		613.6888		592.2323		576.5317		561.4982		548.0338		536.2547		525.3638		518.8654		512.6810		505.8222		501.2085		496.9914		491.2250		488.7508		483.9682		481.6228		478.8187		477.1912		474.3336		471.3008		470.9366		469.5426		467.5117		
 0.960		427.7014		428.6831		430.2768		432.0905		433.2588		434.4842		436.1258		436.3846		438.2106		439.2245		441.4934		443.2465		442.7776		445.9865		448.0555		448.6582		449.8911		454.6771		456.8230		456.9952		460.7164		462.7086		464.1264		466.0374		468.4417		471.4880		473.1555		477.7000		479.8460		482.7907		486.9768		489.5651		495.4838		497.5189		500.9944		506.3699		511.6862		515.7488		522.4318		528.7759		534.4770		541.3179		549.2633		556.6075		566.4571		575.0606		586.2017		596.3215		607.7722		620.1056		632.3403		648.9497		662.4097		679.3436		695.3873		712.1439		726.1453		736.3703		740.9513		742.4466		736.8587		721.5392		703.2729		682.1103		657.3387		635.8104		614.5736		593.0968		577.3680		562.2977		548.7762		536.9260		525.9188		519.3539		513.1632		506.2647		501.5939		497.3466		491.5880		489.0412		484.2146		481.9474		479.0382		477.3906		474.4925		471.3983		471.1184		469.7026		467.6662		
 0.970		427.6902		428.6550		430.2819		432.0875		433.2482		434.5031		436.1301		436.3588		438.1961		439.2054		441.4615		443.2321		442.7481		445.9570		448.0512		448.6392		449.8395		454.6534		456.8150		456.9927		460.6682		462.6892		464.0807		465.9961		468.4179		471.4405		473.1079		477.6438		479.7953		482.7171		486.8697		489.5132		495.3952		497.4236		500.9658		506.2603		511.5600		515.6586		522.2821		528.6275		534.2911		541.1250		549.0346		556.3501		566.1974		574.7563		585.8581		595.9638		607.3666		619.6611		631.7944		648.3532		661.7651		678.6586		694.5899		711.3278		725.3661		735.6411		740.4136		742.0580		736.7953		721.7474		703.7324		682.7057		658.1298		636.7163		615.4583		593.9613		578.2042		563.0971		549.5187		537.6203		526.5176		519.8753		513.6415		506.6904		501.9716		497.6927		491.9498		489.3316		484.4610		482.2721		479.2578		477.5900		474.6513		471.4959		471.3002		469.8625		467.8206		
 0.980		427.6790		428.6270		430.2870		432.0845		433.2375		434.5220		436.1344		436.3330		438.1816		439.1864		441.4296		443.2177		442.7186		445.9275		448.0469		448.6202		449.7879		454.6298		456.8069		456.9901		460.6200		462.6698		464.0350		465.9547		468.3942		471.3930		473.0602		477.5876		479.7446		482.6434		486.7626		489.4612		495.3067		497.3283		500.9371		506.1508		511.4338		515.5685		522.1323		528.4791		534.1052		540.9320		548.8059		556.0927		565.9377		574.4520		585.5145		595.6061		606.9610		619.2167		631.2486		647.7567		661.1206		677.9735		693.7926		710.5117		724.5869		734.9118		739.8759		741.6694		736.7319		721.9556		704.1920		683.3012		658.9210		637.6221		616.3430		594.8258		579.0404		563.8965		550.2611		538.3146		527.1163		520.3966		514.1189		507.1026		502.3351		497.9905		492.1909		489.6113		484.6963		482.5315		479.4664		477.7795		474.8087		471.6020		471.4803		470.0225		467.9751		
 0.990		427.6677		428.6135		430.2921		432.0814		433.2269		434.5344		436.1387		436.3072		438.1671		439.1678		441.3977		443.2033		442.6891		445.8982		448.0362		448.6012		449.7412		454.6062		456.7989		456.9876		460.5718		462.6505		463.9893		465.9134		468.3705		471.3455		473.0126		477.5314		479.6939		482.5698		486.6555		489.4092		495.2181		497.2330		500.9085		506.0412		511.3077		515.4783		521.9825		528.3307		533.9193		540.7391		548.5772		555.8353		565.6781		574.1476		585.1709		595.2485		606.5555		618.7722		630.7027		647.1601		660.4761		677.2885		692.9953		709.6956		723.8077		734.1826		739.3382		741.2808		736.6685		722.1638		704.6515		683.8967		659.7121		638.5280		617.2277		595.6903		579.8767		564.6959		551.0035		539.0089		527.7150		520.9179		514.5963		507.5148		502.6986		498.2883		492.4320		489.8891		484.9268		482.7362		479.6593		477.9470		474.9607		471.7681		471.6051		470.1365		468.0879		
 1.000		427.6549		428.6131		430.2972		432.0784		433.2163		434.5391		436.1430		436.2814		438.1526		439.1825		441.3657		443.1889		442.6597		445.8753		448.0089		448.5820		449.7249		454.5825		456.7856		456.9850		460.5235		462.6203		463.9436		465.8720		468.3498		471.2877		472.9550		477.4752		479.6348		482.4961		486.5484		489.3573		495.1295		497.1377		500.8799		505.9317		511.1815		515.3881		521.8328		528.1824		533.7333		540.5461		548.3486		555.5778		565.4184		573.8433		584.8273		594.8908		606.1499		618.3277		630.1569		646.5636		659.8316		676.6034		692.1980		708.8796		723.0285		733.4534		738.8006		740.8922		736.6051		722.3720		705.1110		684.4921		660.5033		639.4338		618.1125		596.5548		580.7129		565.4954		551.7459		539.7032		528.3138		521.4392		515.0737		507.9270		503.0620		498.5862		492.6731		490.1669		485.1574		482.9409		479.8522		478.1146		475.1126		471.9343		471.7299		470.2481		468.1950		
 1.010		427.6420		428.6127		430.3006		432.0657		433.2017		434.5438		436.1396		436.2544		438.1381		439.1973		441.3397		443.1744		442.6303		445.8523		447.9817		448.5628		449.7085		454.5593		456.7654		456.9767		460.4753		462.5827		463.8979		465.8305		468.3325		471.2245		472.8862		477.4190		479.5541		482.4225		486.4371		489.2986		495.0409		497.0403		500.8513		505.8221		511.0559		515.2979		521.6830		528.0340		533.5474		540.3532		548.1199		555.3204		565.1587		573.5390		584.4837		594.5331		605.7443		617.8833		629.6110		645.9671		659.1871		675.9184		691.4007		708.0635		722.2492		732.7241		738.2629		740.5036		736.5417		722.5802		705.5705		685.0876		661.2944		640.3397		618.9972		597.4192		581.5491		566.2948		552.4884		540.3975		528.9125		521.9605		515.5511		508.3392		503.4255		498.8840		492.9142		490.4448		485.3879		483.1455		480.0451		478.2821		475.2646		472.1005		471.8548		470.3597		468.3020		
 1.020		427.6291		428.6123		430.3005		432.0444		433.1847		434.5486		436.1301		436.2211		438.1393		439.2120		441.3227		443.1596		442.6031		445.8294		447.9544		448.5436		449.6922		454.5388		456.7451		456.9353		460.4423		462.5450		463.8491		465.7890		468.3152		471.1613		472.8173		477.3635		479.4734		482.3562		486.3251		489.2317		494.9523		496.9404		500.8227		505.7141		510.9332		515.1900		521.5355		527.8856		533.3615		540.1591		547.8912		555.0630		564.8989		573.2348		584.1401		594.1754		605.3387		617.4388		629.0652		645.3705		658.5425		675.2333		690.6034		707.2474		721.4700		731.9949		737.7252		740.1149		736.4783		722.7884		706.0301		685.6830		662.0856		641.2455		619.8819		598.2837		582.3853		567.0942		553.2308		541.0918		529.5112		522.4818		516.0285		508.7514		503.7890		499.1818		493.1553		490.7226		485.6185		483.3502		480.2380		478.4497		475.4166		472.2666		471.9796		470.4712		468.4091		
 1.030		427.6163		428.6119		430.3004		432.0231		433.1677		434.5533		436.1206		436.1879		438.1408		439.2267		441.3057		443.1449		442.5759		445.8064		447.9271		448.5244		449.6758		454.5183		456.7249		456.8938		460.4169		462.5074		463.7941		465.7475		468.2979		471.0981		472.7484		477.3132		479.3927		482.3104		486.2132		489.1648		494.8602		496.8406		500.7960		505.6161		510.8105		515.0716		521.3886		527.7393		533.1769		539.9638		547.6625		554.8056		564.6373		572.9316		583.7964		593.8196		604.9173		616.9944		628.5181		644.7740		657.8980		674.5483		689.8060		706.4313		720.6908		731.2657		737.1875		739.7263		736.4149		722.9966		706.4896		686.2785		662.8767		642.1514		620.7666		599.1482		583.2216		567.8936		553.9732		541.7861		530.1100		523.0031		516.5059		509.1636		504.1525		499.4797		493.3964		491.0004		485.8490		483.5549		480.4309		478.6172		475.5685		472.4328		472.1044		470.5828		468.5161		
 1.040		427.6034		428.6114		430.3002		432.0018		433.1507		434.5580		436.1111		436.1547		438.1423		439.2414		441.2887		443.1302		442.5487		445.7835		447.8998		448.5052		449.6595		454.4977		456.7046		456.8524		460.3916		462.4698		463.7390		465.7060		468.2805		471.0349		472.6795		477.2630		479.3120		482.2647		486.1012		489.0979		494.7632		496.7407		500.7708		505.5181		510.6879		514.9531		521.2418		527.6051		533.0005		539.7685		547.4362		554.5576		564.3757		572.6283		583.4528		593.4662		604.4912		616.5291		627.9585		644.1792		657.2535		673.8632		689.0087		705.6152		719.9116		730.5364		736.6498		739.3377		736.3515		723.2048		706.9491		686.8740		663.6679		643.0572		621.6514		600.0127		584.0578		568.6930		554.7157		542.4804		530.7087		523.5244		516.9833		509.5758		504.5160		499.7775		493.6375		491.2782		486.0796		483.7596		480.6238		478.7848		475.7205		472.5989		472.2292		470.6944		468.6232		
 1.050		427.5905		428.6110		430.3001		431.9804		433.1337		434.5628		436.1016		436.1215		438.1438		439.2561		441.2717		443.1154		442.5215		445.7606		447.8726		448.4860		449.6431		454.4772		456.6844		456.8110		460.3663		462.4321		463.6840		465.6645		468.2632		470.9717		472.6106		477.2127		479.2313		482.2189		485.9893		489.0310		494.6663		496.6408		500.7456		505.4201		510.5652		514.8347		521.0949		527.4710		532.8242		539.5732		547.2249		554.3466		564.1141		572.3251		583.1136		593.1127		604.0651		616.0587		627.3988		643.5936		656.6118		673.1442		688.2114		704.8000		719.1324		729.8072		736.1122		738.9491		736.2881		723.4130		707.4086		687.4694		664.4590		643.9631		622.5361		600.8772		584.8940		569.4925		555.4581		543.1747		531.3074		524.0457		517.4607		509.9880		504.8795		500.0753		493.8786		491.5561		486.3102		483.9643		480.8167		478.9523		475.8725		472.7651		472.3540		470.8060		468.7303		
 1.060		427.5776		428.6106		430.3000		431.9591		433.1167		434.5675		436.0921		436.0883		438.1453		439.2709		441.2547		443.1007		442.4943		445.7376		447.8453		448.4668		449.6268		454.4567		456.6642		456.7696		460.3409		462.3945		463.6290		465.6231		468.2459		470.9085		472.5417		477.1624		479.1507		482.1731		485.8773		488.9641		494.5693		496.5409		500.7204		505.3221		510.4426		514.7162		520.9481		527.3368		532.6478		539.3779		547.0137		554.1357		563.8525		572.0218		582.7968		592.7592		603.6390		615.5884		626.8392		643.0080		655.9710		672.4214		687.4141		704.0003		718.3537		729.0780		735.5745		738.5605		736.2247		723.6212		707.8682		688.0649		665.2502		644.8689		623.4208		601.7417		585.7303		570.2919		556.2005		543.8690		531.9062		524.5670		517.9380		510.4002		505.2430		500.3732		494.1197		491.8339		486.5407		484.1689		481.0096		479.1199		476.0244		472.9313		472.4788		470.9176		468.8373		
 1.070		427.5648		428.6102		430.2999		431.9378		433.0997		434.5723		436.0826		436.0551		438.1468		439.2856		441.2377		443.0860		442.4670		445.7147		447.8180		448.4476		449.6104		454.4361		456.6439		456.7282		460.3156		462.3569		463.5740		465.5816		468.2286		470.8453		472.4728		477.1121		479.0700		482.1273		485.7653		488.8972		494.4724		496.4410		500.6953		505.2241		510.3199		514.5978		520.8013		527.2027		532.4715		539.1825		546.8024		553.9248		563.5910		571.7186		582.4800		592.4058		603.2129		615.1181		626.2795		642.4224		655.3303		671.6986		686.6261		703.2006		717.5777		728.3557		735.0368		738.1719		736.1613		723.8294		708.3277		688.6604		666.0413		645.7748		624.3055		602.6062		586.5665		571.0913		556.9430		544.5633		532.5049		525.0884		518.4154		510.8124		505.6065		500.6710		494.3608		492.1117		486.7713		484.3736		481.2025		479.2874		476.1764		473.0974		472.6037		471.0292		468.9444		
 1.080		427.5519		428.6097		430.2998		431.9164		433.0827		434.5770		436.0731		436.0219		438.1483		439.3003		441.2206		443.0713		442.4398		445.6917		447.7908		448.4284		449.5941		454.4156		456.6237		456.6868		460.2903		462.3192		463.5189		465.5401		468.2113		470.7821		472.4039		477.0618		478.9893		482.0815		485.6534		488.8303		494.3754		496.3411		500.6701		505.1261		510.1973		514.4793		520.6544		527.0685		532.2951		538.9872		546.5911		553.7138		563.3294		571.4153		582.1632		592.0523		602.7868		614.6478		625.7198		641.8368		654.6895		670.9758		685.8481		702.4010		716.8016		727.6360		734.4991		737.8498		736.0978		724.0376		708.7872		689.2558		666.8325		646.6806		625.1903		603.4707		587.4027		571.8907		557.6854		545.2576		533.1036		525.6097		518.8928		511.2246		505.9700		500.9689		494.6019		492.3895		487.0018		484.5783		481.3954		479.4549		476.3284		473.2636		472.7285		471.1407		469.0515		
 1.090		427.5390		428.6093		430.2997		431.8951		433.0657		434.5817		436.0636		435.9887		438.1498		439.3150		441.2036		443.0565		442.4126		445.6688		447.7635		448.4092		449.5777		454.3951		456.6034		456.6454		460.2649		462.2816		463.4639		465.4986		468.1939		470.7189		472.3350		477.0115		478.9086		482.0357		485.5414		488.7634		494.2785		496.2412		500.6449		505.0281		510.0746		514.3609		520.5076		526.9344		532.1188		538.7919		546.3799		553.5029		563.0678		571.1121		581.8464		591.6988		602.3608		614.1775		625.1602		641.2512		654.0487		670.2530		685.0701		701.6013		716.0255		726.9163		733.9537		737.5305		736.0344		724.2458		709.2468		689.8513		667.6237		647.5865		626.0750		604.3352		588.2390		572.6902		558.4278		545.9519		533.7024		526.1310		519.3702		511.6367		506.3334		501.2667		494.8430		492.6674		487.2324		484.7830		481.5883		479.6225		476.4804		473.4298		472.8533		471.2523		469.1585		
 1.100		427.5261		428.6089		430.2995		431.8738		433.0487		434.5865		436.0541		435.9555		438.1513		439.3297		441.1866		443.0418		442.3854		445.6458		447.7362		448.3900		449.5614		454.3745		456.5832		456.6040		460.2396		462.2439		463.4089		465.4571		468.1766		470.6557		472.2661		476.9612		478.8279		481.9900		485.4295		488.6965		494.1816		496.1413		500.6197		504.9301		509.9520		514.2424		520.3607		526.8002		531.9424		538.5966		546.1686		553.2920		562.8062		570.8088		581.5297		591.3454		601.9347		613.7072		624.6005		640.6656		653.4079		669.5302		684.2921		700.8016		715.2494		726.1966		733.3732		737.2111		735.9552		724.4540		709.7063		690.4561		668.4170		648.4923		626.9597		605.1997		589.0752		573.4896		559.1702		546.6463		534.3011		526.6523		519.8476		512.0489		506.6969		501.5645		495.0841		492.9452		487.4629		484.9876		481.7812		479.7900		476.6323		473.5959		472.9781		471.3639		469.2656		
 1.110		427.5133		428.6085		430.2994		431.8525		433.0317		434.5912		436.0446		435.9222		438.1528		439.3445		441.1696		443.0271		442.3582		445.6229		447.7089		448.3708		449.5450		454.3540		456.5630		456.5625		460.2143		462.2063		463.3538		465.4156		468.1593		470.5925		472.1972		476.9109		478.7472		481.9442		485.3175		488.6296		494.0846		496.0414		500.5946		504.8321		509.8293		514.1240		520.2139		526.6661		531.7661		538.4013		545.9574		553.0810		562.5446		570.5056		581.2129		590.9919		601.5086		613.2368		624.0408		640.0800		652.7671		668.8074		683.5140		700.0019		714.4733		725.4769		732.7928		736.8918		735.8318		724.6252		710.1596		691.1231		669.2315		649.3981		627.8461		606.0642		589.9114		574.2890		559.9127		547.3406		534.8998		527.1736		520.3250		512.4611		507.0604		501.8624		495.3252		493.2230		487.6935		485.1923		481.9741		479.9576		476.7843		473.7621		473.1029		471.4755		469.3727		
 1.120		427.5004		428.6080		430.2993		431.8311		433.0146		434.5959		436.0351		435.8890		438.1543		439.3592		441.1526		443.0123		442.3310		445.5999		447.6817		448.3516		449.5287		454.3335		456.5427		456.5211		460.1889		462.1687		463.2988		465.3741		468.1420		470.5293		472.1283		476.8606		478.6665		481.8984		485.2056		488.5627		493.9877		495.9415		500.5694		504.7341		509.7066		514.0055		520.0671		526.5319		531.5897		538.2060		545.7461		552.8701		562.2830		570.2023		580.8961		590.6385		601.0825		612.7665		623.4812		639.4944		652.1263		668.0845		682.7360		699.2023		713.6973		724.7572		732.2123		736.5725		735.7085		724.7785		710.5654		691.7901		670.0460		650.3021		628.7513		606.9287		590.7476		575.0884		560.6551		548.0349		535.4986		527.6949		520.8024		512.8733		507.4239		502.1602		495.5663		493.5008		487.9240		485.3970		482.1670		480.1251		476.9363		473.9283		473.2277		471.5871		469.4797		
 1.130		427.4875		428.6076		430.2992		431.8098		432.9976		434.6007		436.0256		435.8558		438.1558		439.3739		441.1356		442.9976		442.3037		445.5770		447.6544		448.3324		449.5123		454.3129		456.5225		456.4797		460.1636		462.1310		463.2438		465.3326		468.1247		470.4661		472.0595		476.8103		478.5858		481.8526		485.0936		488.4958		493.8907		495.8416		500.5442		504.6361		509.5840		513.8871		519.9202		526.3978		531.4133		538.0106		545.5349		552.6592		562.0214		569.8991		580.5793		590.2850		600.6564		612.2962		622.9215		638.9088		651.4855		667.3617		681.9580		698.4026		712.9212		724.0375		731.6318		736.2532		735.5851		724.9318		710.9711		692.4571		670.8605		651.2061		629.6565		607.7881		591.5839		575.8879		561.3975		548.7292		536.0973		528.2162		521.2798		513.2855		507.7874		502.4580		495.8074		493.7786		488.1546		485.6017		482.3599		480.2927		477.0882		474.0944		473.3526		471.6987		469.5868		
 1.140		427.4746		428.6072		430.2991		431.7885		432.9806		434.6054		436.0161		435.8226		438.1572		439.3886		441.1186		442.9829		442.2765		445.5541		447.6271		448.3132		449.4960		454.2924		456.5022		456.4383		460.1383		462.0934		463.1888		465.2912		468.1074		470.4029		471.9906		476.7600		478.5052		481.8068		484.9816		488.4289		493.7938		495.7417		500.5191		504.5381		509.4613		513.7686		519.7734		526.2636		531.2370		537.8153		545.3236		552.4482		561.7598		569.5958		580.2625		589.9315		600.2304		611.8259		622.3618		638.3232		650.8447		666.6389		681.1800		697.6029		712.1451		723.3178		731.0514		735.9338		735.4617		725.0851		711.3769		693.1241		671.6749		652.1101		630.5617		608.6446		592.4201		576.6450		562.1381		549.4217		536.6924		528.7375		521.7572		513.6977		508.1509		502.7559		496.0485		494.0565		488.3851		485.8063		482.5528		480.4602		477.2402		474.2606		473.4774		471.8102		469.6939		
 1.150		427.4618		428.6068		430.2990		431.7671		432.9636		434.6102		436.0066		435.7894		438.1587		439.4033		441.1016		442.9681		442.2493		445.5311		447.5999		448.2940		449.4796		454.2719		456.4820		456.3969		460.1129		462.0558		463.1337		465.2497		468.0900		470.3397		471.9217		476.7098		478.4245		481.7611		484.8697		488.3620		493.6968		495.6418		500.4939		504.4401		509.3387		513.6502		519.6265		526.1295		531.0606		537.6200		545.1124		552.2373		561.4982		569.2926		579.9457		589.5781		599.8043		611.3556		621.8022		637.7376		650.2040		665.9161		680.4020		696.8032		711.3690		722.5981		730.4709		735.6145		735.3383		725.2384		711.7827		693.7910		672.4894		653.0142		631.4669		609.5010		593.2644		577.4019		562.8775		550.1108		537.2820		529.2462		522.2302		514.1099		508.5144		503.0537		496.2896		494.3343		488.6157		486.0110		482.7457		480.6278		477.3922		474.4267		473.6022		471.9218		469.8009		
 1.160		427.4489		428.6063		430.2988		431.7458		432.9466		434.6149		435.9971		435.7562		438.1602		439.4181		441.0846		442.9534		442.2221		445.5082		447.5726		448.2748		449.4633		454.2513		456.4617		456.3555		460.0876		462.0181		463.0787		465.2082		468.0727		470.2765		471.8528		476.6595		478.3438		481.7153		484.7577		488.2951		493.5999		495.5419		500.4687		504.3421		509.2160		513.5317		519.4797		525.9953		530.8843		537.4247		544.9011		552.0264		561.2366		568.9893		579.6289		589.2246		599.3782		610.8853		621.2425		637.1520		649.5632		665.1933		679.6240		696.0036		710.5929		721.8784		729.8905		735.2952		735.2149		725.3917		712.1884		694.4580		673.3039		653.9182		632.3721		610.3575		594.1106		578.1589		563.6169		550.7998		537.8716		529.7505		522.7014		514.5221		508.8664		503.3487		496.5307		494.6001		488.8462		486.2155		482.9386		480.7953		477.5442		474.5929		473.7270		472.0334		469.9080		
 1.170		427.4360		428.6059		430.2987		431.7245		432.9296		434.6196		435.9876		435.7230		438.1617		439.4328		441.0676		442.9387		442.1949		445.4852		447.5453		448.2556		449.4469		454.2308		456.4415		456.3141		460.0623		461.9805		463.0237		465.1667		468.0554		470.2133		471.7839		476.6092		478.2631		481.6695		484.6458		488.2282		493.5030		495.4420		500.4435		504.2441		509.0934		513.4133		519.3329		525.8612		530.7079		537.2294		544.6898		551.8155		560.9750		568.6861		579.3121		588.8711		598.9521		610.4149		620.6829		636.5664		648.9224		664.4705		678.8460		695.2039		709.8169		721.1587		729.3100		734.9759		735.0915		725.5450		712.5942		695.1250		674.1184		654.8222		633.2774		611.2139		594.9567		578.9158		564.3563		551.4889		538.4612		530.2547		523.1725		514.9462		509.2147		503.6410		496.7718		494.8616		489.0768		486.3747		483.1317		480.9629		477.6984		474.7591		473.8518		472.1455		470.0126		
 1.180		427.4231		428.6055		430.2986		431.7031		432.9126		434.6244		435.9781		435.6898		438.1632		439.4475		441.0506		442.9240		442.1677		445.4623		447.5180		448.2364		449.4306		454.2103		456.4213		456.2727		460.0369		461.9428		462.9687		465.1252		468.0381		470.1501		471.7150		476.5589		478.1824		481.6237		484.5338		488.1613		493.4060		495.3421		500.4184		504.1461		508.9707		513.2948		519.1860		525.7270		530.5316		537.0340		544.4786		551.6045		560.7134		568.3828		578.9954		588.5177		598.5260		609.9446		620.1232		635.9808		648.2816		663.7477		678.0679		694.4042		709.0408		720.4390		728.7296		734.6565		734.9682		725.6983		712.9999		695.7920		674.9329		655.7262		634.1826		612.0704		595.8028		579.6727		565.0957		552.1780		539.0508		530.7590		523.6437		515.3759		509.5629		503.9332		497.0247		495.1232		489.3074		486.5340		483.3253		481.1304		477.8551		474.9252		473.9766		472.2625		470.1146		
 1.190		427.4103		428.6051		430.2985		431.6818		432.8956		434.6291		435.9686		435.6566		438.1647		439.4622		441.0336		442.9092		442.1405		445.4393		447.4908		448.2172		449.4142		454.1897		456.4010		456.2312		460.0116		461.9052		462.9136		465.0837		468.0208		470.0870		471.6461		476.5086		478.1017		481.5779		484.4219		488.0944		493.3091		495.2423		500.3932		504.0481		508.8481		513.1764		519.0392		525.5929		530.3552		536.8387		544.2673		551.3936		560.4519		568.0796		578.6786		588.1642		598.1000		609.4743		619.5635		635.3952		647.6408		663.0249		677.2899		693.6045		708.2647		719.7193		728.1491		734.3372		734.8448		725.8516		713.4057		696.4590		675.7474		656.6302		635.0878		612.9268		596.6489		580.4297		565.8350		552.8670		539.6405		531.2632		524.1148		515.8055		509.9112		504.2255		497.2968		495.3847		489.5437		486.6933		483.5189		481.3098		478.0117		475.0985		474.1005		472.3795		470.2166		
 1.200		     NaN		     NaN		     NaN		     NaN		434.9958		435.4305		437.0601		438.6466		440.0630		440.8973		441.8288		443.1540		444.2679		446.1147		447.6705		449.0248		449.6120		454.1692		456.3808		456.1898		459.9863		461.8676		462.8586		465.0422		468.0035		470.0238		471.5772		476.4583		478.0210		481.5321		484.3099		488.0275		493.2121		495.1424		500.3680		503.9501		508.7254		513.0579		518.8923		525.4587		530.1789		536.6434		544.0561		551.1827		560.1903		567.7763		578.3618		587.8107		597.6739		609.0040		619.0039		634.8096		647.0000		662.3021		676.5119		692.8049		707.4886		718.9997		727.5687		734.0179		734.7214		726.0049		713.8115		697.1260		676.5619		657.5343		635.9930		613.7833		597.4950		581.1866		566.5744		553.5561		540.2301		531.7674		524.5860		516.2351		510.2595		504.5177		497.5688		495.6462		489.7811		486.8525		483.7125		481.4905		478.1683		475.2904		474.2240		472.4965		470.3186		
 1.210		     NaN		     NaN		     NaN		     NaN		     NaN		     NaN		     NaN		     NaN		441.6267		444.9804		444.8983		446.5280		448.0792		449.3103		449.8320		451.2547		452.4008		456.2415		457.7973		459.3280		459.7970		463.9384		463.0708		466.9084		469.0944		470.6100		473.1169		475.2123		478.1756		482.3032		483.4879		487.9606		493.1152		495.0425		500.3428		503.8521		508.6027		512.9395		518.7455		525.3246		530.0025		536.4481		543.8448		550.9717		559.9287		567.4731		578.0450		587.4573		597.2478		608.5337		618.4442		634.2240		646.3592		661.5793		675.7339		692.0052		706.7125		718.2800		726.9882		733.6986		734.5980		726.1582		714.2172		697.7930		677.3764		658.4383		636.8982		614.6398		598.3412		581.9435		567.3138		554.2451		540.8197		532.2717		525.0572		516.6647		510.6077		504.8100		497.8409		495.9078		490.0186		487.0118		483.9061		481.6712		478.3250		475.4822		474.3475		472.6136		470.4206		
 1.220		     NaN		     NaN		     NaN		     NaN		     NaN		     NaN		     NaN		     NaN		     NaN		     NaN		     NaN		     NaN		     NaN		452.5239		453.3547		454.3662		455.9650		457.3778		458.0903		459.3383		460.5253		463.8272		467.9242		469.5284		469.9819		474.1723		474.3901		477.5235		479.3506		480.8661		483.4908		486.2017		489.6449		495.8286		502.5967		505.3399		510.7914		513.9789		518.2329		525.0567		529.8262		536.2528		543.6336		550.7608		559.6671		567.1698		577.7282		587.1038		596.8217		608.0633		617.8845		633.6384		645.7185		660.8564		674.9559		691.2055		705.9365		717.5603		726.4078		733.3792		734.4746		726.3115		714.6230		698.4600		678.1909		659.3423		637.8034		615.4962		599.1873		582.7005		568.0532		554.9342		541.4093		532.7759		525.5283		517.0944		510.9560		505.1022		498.1129		496.1693		490.2560		487.1711		484.0997		481.8519		478.4816		475.6741		474.4710		472.7306		470.5226		
 1.230		     NaN		     NaN		     NaN		     NaN		     NaN		     NaN		     NaN		     NaN		     NaN		     NaN		     NaN		     NaN		     NaN		     NaN		     NaN		     NaN		     NaN		     NaN		461.4840		462.2727		463.8340		465.3976		466.5034		467.3415		468.6260		469.6833		478.0510		479.6380		480.2294		484.4061		485.5017		488.1387		489.6067		491.9569		     NaN		     NaN		507.6205		517.3179		520.4443		525.4043		530.2016		534.4312		541.2573		547.1346		556.1720		566.1645		577.4114		586.7504		596.3956		607.5930		617.3249		633.0528		645.0777		660.1336		674.1779		690.4058		705.1604		716.8406		725.8273		733.0599		734.3512		726.4648		715.0288		699.1270		679.0054		660.2463		638.7086		616.3527		600.0334		583.4574		568.7926		555.6233		541.9989		533.2802		525.9995		517.5240		511.3043		505.3945		498.3850		496.4308		490.4935		487.3303		484.2933		482.0326		478.6383		475.8659		474.5945		472.8476		470.6246		
 1.240		     NaN		     NaN		     NaN		     NaN		     NaN		     NaN		     NaN		     NaN		     NaN		     NaN		     NaN		     NaN		     NaN		     NaN		     NaN		     NaN		     NaN		     NaN		     NaN		     NaN		     NaN		     NaN		458.5373		470.8988		471.6722		473.2834		474.6926		475.3448		476.7267		477.8161		488.1778		489.7476		490.4871		494.8086		495.9963		498.3472		499.8628		     NaN		     NaN		518.2731		524.2388		535.5487		539.0765		546.4244		550.6295		     NaN		     NaN		     NaN		     NaN		601.6140		616.7652		632.4672		644.4369		659.4108		673.3999		689.6062		704.3843		716.1209		725.2469		732.7406		734.2279		726.6181		715.4345		699.7940		679.8198		661.1504		639.6138		617.2091		600.8795		584.2144		569.5320		556.3123		542.5886		533.7844		526.4706		517.9536		511.6525		505.6867		498.6571		496.6924		490.7310		487.4896		484.4869		482.2133		478.7949		476.0578		474.7180		472.9646		470.7265		
 1.250		     NaN		     NaN		     NaN		     NaN		     NaN		     NaN		     NaN		     NaN		     NaN		     NaN		     NaN		     NaN		     NaN		     NaN		     NaN		     NaN		     NaN		     NaN		     NaN		     NaN		     NaN		     NaN		     NaN		     NaN		     NaN		     NaN		     NaN		472.3372		480.3460		481.1400		482.7160		483.6964		484.8274		     NaN		498.3047		499.8605		500.7448		505.3867		506.5910		     NaN		     NaN		     NaN		     NaN		     NaN		550.8035		553.5105		562.6472		566.9167		     NaN		     NaN		     NaN		     NaN		     NaN		657.7802		672.6218		688.8065		703.6082		715.4012		724.6664		732.4213		734.1045		726.7714		715.8403		700.4610		680.6343		662.0544		640.5190		618.0656		601.7256		584.9713		570.2714		557.0014		543.1782		534.2887		526.9418		518.3832		512.0008		505.9789		498.9291		496.9539		490.9684		487.6489		484.6805		482.3940		478.9515		476.2496		474.8415		473.0817		470.8285		
 1.260		     NaN		     NaN		     NaN		     NaN		     NaN		     NaN		     NaN		     NaN		     NaN		     NaN		     NaN		     NaN		     NaN		     NaN		     NaN		     NaN		     NaN		     NaN		     NaN		     NaN		     NaN		     NaN		     NaN		     NaN		     NaN		     NaN		     NaN		     NaN		     NaN		     NaN		     NaN		     NaN		486.2578		489.1985		490.6018		492.0074		492.8543		     NaN		506.7432		509.9873		511.0025		515.5892		517.2061		     NaN		     NaN		     NaN		     NaN		562.6043		568.6150		578.8855		     NaN		     NaN		     NaN		     NaN		     NaN		     NaN		702.8321		714.6815		724.0859		732.1020		733.9811		726.9247		716.2460		701.1280		681.4488		662.9584		641.4242		618.9220		602.5718		585.7282		571.0108		557.6905		543.7678		534.7929		527.4129		518.8129		512.3491		506.2712		499.2012		497.2155		491.2059		487.8081		484.8741		482.5747		479.1082		476.4415		474.9650		473.1987		470.9305		
 1.270		     NaN		     NaN		     NaN		     NaN		     NaN		     NaN		     NaN		     NaN		     NaN		     NaN		     NaN		     NaN		     NaN		     NaN		     NaN		     NaN		     NaN		     NaN		     NaN		     NaN		     NaN		     NaN		     NaN		     NaN		     NaN		     NaN		     NaN		     NaN		     NaN		     NaN		     NaN		     NaN		     NaN		     NaN		     NaN		     NaN		     NaN		497.5766		     NaN		     NaN		     NaN		     NaN		511.8636		520.1142		521.2602		524.6724		     NaN		     NaN		     NaN		     NaN		     NaN		583.7194		595.4426		     NaN		     NaN		     NaN		     NaN		     NaN		723.5055		731.7826		733.8577		727.0780		716.6518		701.7949		682.2633		663.8624		642.3295		619.7785		603.4179		586.4852		571.7502		558.3795		544.3574		535.2972		527.8841		519.2425		512.6973		506.5634		499.4732		497.4770		491.4433		487.9674		485.0677		482.7554		479.2648		476.6333		475.0885		473.3157		471.0325		
 1.280		     NaN		     NaN		     NaN		     NaN		     NaN		     NaN		     NaN		     NaN		     NaN		     NaN		     NaN		     NaN		     NaN		     NaN		     NaN		     NaN		     NaN		     NaN		     NaN		     NaN		     NaN		     NaN		     NaN		     NaN		     NaN		     NaN		     NaN		     NaN		     NaN		     NaN		     NaN		     NaN		     NaN		     NaN		     NaN		     NaN		     NaN		     NaN		     NaN		     NaN		     NaN		     NaN		506.8018		     NaN		     NaN		     NaN		     NaN		530.2410		531.5179		     NaN		     NaN		     NaN		     NaN		     NaN		599.0184		610.1944		     NaN		     NaN		     NaN		     NaN		733.7343		727.2313		717.0576		702.4619		683.0778		664.7665		643.2347		620.6349		604.2640		587.2421		572.4896		559.0686		544.9470		535.8014		528.3553		519.6721		513.0456		506.8557		499.7453		497.7385		491.6808		488.1267		485.2613		482.9361		479.4214		476.8252		475.2120		473.4328		471.1345		
 1.290		     NaN		     NaN		     NaN		     NaN		     NaN		     NaN		     NaN		     NaN		     NaN		     NaN		     NaN		     NaN		     NaN		     NaN		     NaN		     NaN		     NaN		     NaN		     NaN		     NaN		     NaN		     NaN		     NaN		     NaN		     NaN		     NaN		     NaN		     NaN		     NaN		     NaN		     NaN		     NaN		     NaN		     NaN		     NaN		     NaN		     NaN		     NaN		     NaN		     NaN		     NaN		     NaN		     NaN		     NaN		     NaN		     NaN		     NaN		     NaN		     NaN		     NaN		     NaN		540.3678		     NaN		     NaN		     NaN		     NaN		     NaN		     NaN		     NaN		     NaN		     NaN		     NaN		717.4633		703.1289		683.8923		665.6705		644.1399		621.4914		605.1101		587.9990		573.2290		559.7576		545.5367		536.3057		528.8264		520.1017		513.3939		507.1479		500.0173		498.0001		491.9182		488.2859		485.4549		483.1168		479.5781		477.0170		475.3355		473.5498		471.2365		
 1.300		     NaN		     NaN		     NaN		     NaN		     NaN		     NaN		     NaN		     NaN		     NaN		     NaN		     NaN		     NaN		     NaN		     NaN		     NaN		     NaN		     NaN		     NaN		     NaN		     NaN		     NaN		     NaN		     NaN		     NaN		     NaN		     NaN		     NaN		     NaN		     NaN		     NaN		     NaN		     NaN		     NaN		     NaN		     NaN		     NaN		     NaN		     NaN		     NaN		     NaN		     NaN		     NaN		     NaN		     NaN		     NaN		     NaN		     NaN		     NaN		     NaN		     NaN		     NaN		     NaN		     NaN		     NaN		     NaN		549.6592		     NaN		     NaN		     NaN		     NaN		     NaN		     NaN		     NaN		     NaN		684.7068		666.5745		645.0451		622.3478		605.9562		588.7560		573.9684		560.4467		546.1263		536.8099		529.2976		520.5313		513.7421		507.4402		500.2894		498.2616		492.1557		488.4452		485.6485		483.2975		479.7347		477.2088		475.4590		473.6668		471.3385		
 1.310		     NaN		     NaN		     NaN		     NaN		     NaN		     NaN		     NaN		     NaN		     NaN		     NaN		     NaN		     NaN		     NaN		     NaN		     NaN		     NaN		     NaN		     NaN		     NaN		     NaN		     NaN		     NaN		     NaN		     NaN		     NaN		     NaN		     NaN		     NaN		     NaN		     NaN		     NaN		     NaN		     NaN		     NaN		     NaN		     NaN		     NaN		     NaN		     NaN		     NaN		     NaN		     NaN		     NaN		     NaN		     NaN		     NaN		     NaN		     NaN		     NaN		     NaN		     NaN		     NaN		     NaN		     NaN		     NaN		     NaN		     NaN		     NaN		     NaN		     NaN		     NaN		     NaN		     NaN		     NaN		     NaN		667.4785		645.9503		623.2043		606.8024		589.5129		574.7078		561.1358		546.7159		537.3142		529.7687		520.9610		514.0904		507.7324		500.5615		498.5231		492.3931		488.6045		485.8421		483.4782		479.8914		477.4007		475.5825		473.7838		471.4405		
 1.320		     NaN		     NaN		     NaN		     NaN		     NaN		     NaN		     NaN		     NaN		     NaN		     NaN		     NaN		     NaN		     NaN		     NaN		     NaN		     NaN		     NaN		     NaN		     NaN		     NaN		     NaN		     NaN		     NaN		     NaN		     NaN		     NaN		     NaN		     NaN		     NaN		     NaN		     NaN		     NaN		     NaN		     NaN		     NaN		     NaN		     NaN		     NaN		     NaN		     NaN		     NaN		     NaN		     NaN		     NaN		     NaN		     NaN		     NaN		     NaN		     NaN		     NaN		     NaN		     NaN		     NaN		     NaN		     NaN		     NaN		     NaN		     NaN		     NaN		     NaN		     NaN		     NaN		     NaN		     NaN		     NaN		     NaN		     NaN		624.0607		607.6485		590.2699		575.4472		561.8248		547.3055		537.8184		530.2399		521.3906		514.4387		508.0247		500.8335		498.7847		492.6306		488.7637		486.0357		483.6589		480.0480		477.5925		475.7059		473.9009		471.5425		
 1.330		     NaN		     NaN		     NaN		     NaN		     NaN		     NaN		     NaN		     NaN		     NaN		     NaN		     NaN		     NaN		     NaN		     NaN		     NaN		     NaN		     NaN		     NaN		     NaN		     NaN		     NaN		     NaN		     NaN		     NaN		     NaN		     NaN		     NaN		     NaN		     NaN		     NaN		     NaN		     NaN		     NaN		     NaN		     NaN		     NaN		     NaN		     NaN		     NaN		     NaN		     NaN		     NaN		     NaN		     NaN		     NaN		     NaN		     NaN		     NaN		     NaN		     NaN		     NaN		     NaN		     NaN		     NaN		     NaN		     NaN		     NaN		     NaN		     NaN		     NaN		     NaN		     NaN		     NaN		     NaN		     NaN		     NaN		     NaN		     NaN		     NaN		591.0268		576.1866		562.5139		547.8951		538.3227		530.7110		521.8202		514.7869		508.3169		501.1056		499.0462		492.8681		488.9230		486.2293		483.8396		480.2046		477.7844		475.8294		474.0179		471.6444		
 1.340		     NaN		     NaN		     NaN		     NaN		     NaN		     NaN		     NaN		     NaN		     NaN		     NaN		     NaN		     NaN		     NaN		     NaN		     NaN		     NaN		     NaN		     NaN		     NaN		     NaN		     NaN		     NaN		     NaN		     NaN		     NaN		     NaN		     NaN		     NaN		     NaN		     NaN		     NaN		     NaN		     NaN		     NaN		     NaN		     NaN		     NaN		     NaN		     NaN		     NaN		     NaN		     NaN		     NaN		     NaN		     NaN		     NaN		     NaN		     NaN		     NaN		     NaN		     NaN		     NaN		     NaN		     NaN		     NaN		     NaN		     NaN		     NaN		     NaN		     NaN		     NaN		     NaN		     NaN		     NaN		     NaN		     NaN		     NaN		     NaN		     NaN		     NaN		     NaN		563.2029		548.4848		538.8269		531.1822		522.2498		515.1352		508.6092		501.3776		499.3077		493.1055		489.0823		486.4229		484.0203		480.3613		477.9762		475.9529		474.1349		471.7464		
 1.350		     NaN		     NaN		     NaN		     NaN		     NaN		     NaN		     NaN		     NaN		     NaN		     NaN		     NaN		     NaN		     NaN		     NaN		     NaN		     NaN		     NaN		     NaN		     NaN		     NaN		     NaN		     NaN		     NaN		     NaN		     NaN		     NaN		     NaN		     NaN		     NaN		     NaN		     NaN		     NaN		     NaN		     NaN		     NaN		     NaN		     NaN		     NaN		     NaN		     NaN		     NaN		     NaN		     NaN		     NaN		     NaN		     NaN		     NaN		     NaN		     NaN		     NaN		     NaN		     NaN		     NaN		     NaN		     NaN		     NaN		     NaN		     NaN		     NaN		     NaN		     NaN		     NaN		     NaN		     NaN		     NaN		     NaN		     NaN		     NaN		     NaN		     NaN		     NaN		     NaN		     NaN		     NaN		531.6534		522.6795		515.4835		508.9014		501.6497		499.5693		493.3430		489.2415		486.6165		484.2010		480.5179		478.1681		476.0764		474.2519		471.8484		
 1.360		     NaN		     NaN		     NaN		     NaN		     NaN		     NaN		     NaN		     NaN		     NaN		     NaN		     NaN		     NaN		     NaN		     NaN		     NaN		     NaN		     NaN		     NaN		     NaN		     NaN		     NaN		     NaN		     NaN		     NaN		     NaN		     NaN		     NaN		     NaN		     NaN		     NaN		     NaN		     NaN		     NaN		     NaN		     NaN		     NaN		     NaN		     NaN		     NaN		     NaN		     NaN		     NaN		     NaN		     NaN		     NaN		     NaN		     NaN		     NaN		     NaN		     NaN		     NaN		     NaN		     NaN		     NaN		     NaN		     NaN		     NaN		     NaN		     NaN		     NaN		     NaN		     NaN		     NaN		     NaN		     NaN		     NaN		     NaN		     NaN		     NaN		     NaN		     NaN		     NaN		     NaN		     NaN		     NaN		     NaN		     NaN		     NaN		501.9217		499.8308		493.5804		489.4008		486.8101		484.3817		480.6746		478.3599		476.1999		474.3690		471.9504		
 1.370		     NaN		     NaN		     NaN		     NaN		     NaN		     NaN		     NaN		     NaN		     NaN		     NaN		     NaN		     NaN		     NaN		     NaN		     NaN		     NaN		     NaN		     NaN		     NaN		     NaN		     NaN		     NaN		     NaN		     NaN		     NaN		     NaN		     NaN		     NaN		     NaN		     NaN		     NaN		     NaN		     NaN		     NaN		     NaN		     NaN		     NaN		     NaN		     NaN		     NaN		     NaN		     NaN		     NaN		     NaN		     NaN		     NaN		     NaN		     NaN		     NaN		     NaN		     NaN		     NaN		     NaN		     NaN		     NaN		     NaN		     NaN		     NaN		     NaN		     NaN		     NaN		     NaN		     NaN		     NaN		     NaN		     NaN		     NaN		     NaN		     NaN		     NaN		     NaN		     NaN		     NaN		     NaN		     NaN		     NaN		     NaN		     NaN		     NaN		     NaN		     NaN		     NaN		     NaN		     NaN		480.8312		478.5518		476.3234		474.4860		472.0524		
 1.380		     NaN		     NaN		     NaN		     NaN		     NaN		     NaN		     NaN		     NaN		     NaN		     NaN		     NaN		     NaN		     NaN		     NaN		     NaN		     NaN		     NaN		     NaN		     NaN		     NaN		     NaN		     NaN		     NaN		     NaN		     NaN		     NaN		     NaN		     NaN		     NaN		     NaN		     NaN		     NaN		     NaN		     NaN		     NaN		     NaN		     NaN		     NaN		     NaN		     NaN		     NaN		     NaN		     NaN		     NaN		     NaN		     NaN		     NaN		     NaN		     NaN		     NaN		     NaN		     NaN		     NaN		     NaN		     NaN		     NaN		     NaN		     NaN		     NaN		     NaN		     NaN		     NaN		     NaN		     NaN		     NaN		     NaN		     NaN		     NaN		     NaN		     NaN		     NaN		     NaN		     NaN		     NaN		     NaN		     NaN		     NaN		     NaN		     NaN		     NaN		     NaN		     NaN		     NaN		     NaN		     NaN		     NaN		     NaN		     NaN		     NaN		
