Data from https://doi.org/10.1016/j.apmt.2021.101023
Upon cooling
Temperature(K)	Heat capacity(J/kg/K)

220.02	844.82
220.03	844.87
220.04	844.92
220.05	844.97
220.06	845.01
220.07	845.06
220.08	845.11
220.09	845.16
220.1	845.21
220.11	845.26
220.12	845.3
220.13	845.35
220.14	845.4
220.15	845.45
220.16	845.5
220.17	845.55
220.18	845.59
220.19	845.64
220.2	845.69
220.21	845.74
220.22	845.79
220.23	845.83
220.24	845.88
220.25	845.93
220.26	845.98
220.27	846.03
220.28	846.08
220.29	846.12
220.3	846.17
220.31	846.22
220.32	846.27
220.33	846.32
220.34	846.37
220.35	846.41
220.36	846.46
220.37	846.51
220.38	846.56
220.39	846.61
220.4	846.65
220.41	846.7
220.42	846.75
220.43	846.8
220.44	846.85
220.45	846.9
220.46	846.94
220.47	846.99
220.48	847.04
220.49	847.09
220.5	847.14
220.51	847.18
220.52	847.23
220.53	847.28
220.54	847.33
220.55	847.38
220.56	847.43
220.57	847.47
220.58	847.52
220.59	847.57
220.6	847.62
220.61	847.67
220.62	847.72
220.63	847.76
220.64	847.81
220.65	847.86
220.66	847.91
220.67	847.96
220.68	848
220.69	848.05
220.7	848.1
220.71	848.15
220.72	848.2
220.73	848.25
220.74	848.29
220.75	848.34
220.76	848.39
220.77	848.44
220.78	848.49
220.79	848.54
220.8	848.58
220.81	848.63
220.82	848.68
220.83	848.73
220.84	848.78
220.85	848.82
220.86	848.87
220.87	848.92
220.88	848.97
220.89	849.02
220.9	849.07
220.91	849.11
220.92	849.16
220.93	849.21
220.94	849.26
220.95	849.31
220.96	849.36
220.97	849.4
220.98	849.45
220.99	849.5
221	849.55
221.01	849.6
221.02	849.64
221.03	849.69
221.04	849.74
221.05	849.79
221.06	849.84
221.07	849.89
221.08	849.93
221.09	849.98
221.1	850.03
221.11	850.08
221.12	850.13
221.13	850.17
221.14	850.22
221.15	850.27
221.16	850.32
221.17	850.37
221.18	850.42
221.19	850.46
221.2	850.51
221.21	850.56
221.22	850.61
221.23	850.66
221.24	850.71
221.25	850.75
221.26	850.8
221.27	850.85
221.28	850.9
221.29	850.95
221.3	850.99
221.31	851.04
221.32	851.09
221.33	851.14
221.34	851.19
221.35	851.24
221.36	851.28
221.37	851.33
221.38	851.38
221.39	851.43
221.4	851.48
221.41	851.53
221.42	851.57
221.43	851.62
221.44	851.67
221.45	851.72
221.46	851.77
221.47	851.81
221.48	851.86
221.49	851.91
221.5	851.96
221.51	852.01
221.52	852.06
221.53	852.1
221.54	852.15
221.55	852.2
221.56	852.25
221.57	852.3
221.58	852.35
221.59	852.39
221.6	852.44
221.61	852.49
221.62	852.54
221.63	852.59
221.64	852.63
221.65	852.68
221.66	852.73
221.67	852.78
221.68	852.83
221.69	852.88
221.7	852.92
221.71	852.97
221.72	853.02
221.73	853.07
221.74	853.12
221.75	853.17
221.76	853.21
221.77	853.26
221.78	853.31
221.79	853.36
221.8	853.41
221.81	853.45
221.82	853.5
221.83	853.55
221.84	853.6
221.85	853.65
221.86	853.7
221.87	853.74
221.88	853.79
221.89	853.84
221.9	853.89
221.91	853.94
221.92	853.98
221.93	854.03
221.94	854.08
221.95	854.13
221.96	854.18
221.97	854.23
221.98	854.27
221.99	854.32
222	854.37
222.01	854.42
222.02	854.47
222.03	854.52
222.04	854.56
222.05	854.61
222.06	854.66
222.07	854.71
222.08	854.76
222.09	854.8
222.1	854.85
222.11	854.9
222.12	854.95
222.13	855
222.14	855.05
222.15	855.09
222.16	855.14
222.17	855.19
222.18	855.24
222.19	855.29
222.2	855.34
222.21	855.38
222.22	855.43
222.23	855.48
222.24	855.53
222.25	855.58
222.26	855.62
222.27	855.67
222.28	855.72
222.29	855.77
222.3	855.82
222.31	855.87
222.32	855.91
222.33	855.96
222.34	856.01
222.35	856.06
222.36	856.11
222.37	856.16
222.38	856.2
222.39	856.25
222.4	856.3
222.41	856.35
222.42	856.4
222.43	856.44
222.44	856.49
222.45	856.54
222.46	856.59
222.47	856.64
222.48	856.69
222.49	856.73
222.5	856.78
222.51	856.83
222.52	856.88
222.53	856.93
222.54	856.97
222.55	857.02
222.56	857.07
222.57	857.12
222.58	857.17
222.59	857.22
222.6	857.26
222.61	857.31
222.62	857.36
222.63	857.41
222.64	857.46
222.65	857.51
222.66	857.55
222.67	857.6
222.68	857.65
222.69	857.7
222.7	857.75
222.71	857.79
222.72	857.84
222.73	857.89
222.74	857.94
222.75	857.99
222.76	858.04
222.77	858.08
222.78	858.13
222.79	858.18
222.8	858.23
222.81	858.28
222.82	858.33
222.83	858.37
222.84	858.42
222.85	858.47
222.86	858.52
222.87	858.57
222.88	858.61
222.89	858.66
222.9	858.71
222.91	858.76
222.92	858.81
222.93	858.86
222.94	858.9
222.95	858.95
222.96	859
222.97	859.05
222.98	859.1
222.99	859.15
223	859.19
223.01	859.24
223.02	859.29
223.03	859.34
223.04	859.39
223.05	859.43
223.06	859.48
223.07	859.53
223.08	859.58
223.09	859.63
223.1	859.68
223.11	859.72
223.12	859.77
223.13	859.82
223.14	859.87
223.15	859.92
223.16	859.97
223.17	860.01
223.18	860.06
223.19	860.11
223.2	860.16
223.21	860.21
223.22	860.25
223.23	860.3
223.24	860.35
223.25	860.4
223.26	860.45
223.27	860.5
223.28	860.54
223.29	860.59
223.3	860.64
223.31	860.69
223.32	860.74
223.33	860.78
223.34	860.83
223.35	860.88
223.36	860.93
223.37	860.98
223.38	861.03
223.39	861.07
223.4	861.12
223.41	861.17
223.42	861.22
223.43	861.27
223.44	861.32
223.45	861.36
223.46	861.41
223.47	861.46
223.48	861.51
223.49	861.56
223.5	861.6
223.51	861.65
223.52	861.7
223.53	861.75
223.54	861.8
223.55	861.85
223.56	861.89
223.57	861.94
223.58	861.99
223.59	862.04
223.6	862.09
223.61	862.14
223.62	862.18
223.63	862.23
223.64	862.28
223.65	862.33
223.66	862.38
223.67	862.42
223.68	862.47
223.69	862.52
223.7	862.57
223.71	862.62
223.72	862.67
223.73	862.71
223.74	862.76
223.75	862.81
223.76	862.86
223.77	862.91
223.78	862.96
223.79	863
223.8	863.05
223.81	863.1
223.82	863.15
223.83	863.2
223.84	863.24
223.85	863.29
223.86	863.34
223.87	863.39
223.88	863.44
223.89	863.49
223.9	863.53
223.91	863.58
223.92	863.63
223.93	863.68
223.94	863.73
223.95	863.77
223.96	863.82
223.97	863.87
223.98	863.92
223.99	863.97
224	864.02
224.01	864.06
224.02	864.11
224.03	864.16
224.04	864.21
224.05	864.26
224.06	864.31
224.07	864.35
224.08	864.4
224.09	864.45
224.1	864.5
224.11	864.55
224.12	864.59
224.13	864.64
224.14	864.69
224.15	864.74
224.16	864.79
224.17	864.84
224.18	864.88
224.19	864.93
224.2	864.98
224.21	865.03
224.22	865.08
224.23	865.13
224.24	865.17
224.25	865.22
224.26	865.27
224.27	865.32
224.28	865.37
224.29	865.41
224.3	865.46
224.31	865.51
224.32	865.56
224.33	865.61
224.34	865.66
224.35	865.7
224.36	865.75
224.37	865.8
224.38	865.85
224.39	865.9
224.4	865.95
224.41	865.99
224.42	866.04
224.43	866.09
224.44	866.14
224.45	866.19
224.46	866.23
224.47	866.28
224.48	866.33
224.49	866.38
224.5	866.43
224.51	866.48
224.52	866.52
224.53	866.57
224.54	866.62
224.55	866.67
224.56	866.72
224.57	866.77
224.58	866.81
224.59	866.86
224.6	866.91
224.61	866.96
224.62	867.01
224.63	867.05
224.64	867.1
224.65	867.15
224.66	867.2
224.67	867.25
224.68	867.3
224.69	867.34
224.7	867.39
224.71	867.44
224.72	867.49
224.73	867.54
224.74	867.58
224.75	867.63
224.76	867.68
224.77	867.73
224.78	867.78
224.79	867.83
224.8	867.87
224.81	867.92
224.82	867.97
224.83	868.02
224.84	868.07
224.85	868.12
224.86	868.16
224.87	868.21
224.88	868.26
224.89	868.31
224.9	868.36
224.91	868.4
224.92	868.45
224.93	868.5
224.94	868.55
224.95	868.6
224.96	868.65
224.97	868.69
224.98	868.74
224.99	868.79
225	868.84
225.01	868.89
225.02	868.94
225.03	868.98
225.04	869.03
225.05	869.08
225.06	869.13
225.07	869.18
225.08	869.22
225.09	869.27
225.1	869.32
225.11	869.37
225.12	869.42
225.13	869.47
225.14	869.51
225.15	869.56
225.16	869.61
225.17	869.66
225.18	869.71
225.19	869.76
225.2	869.8
225.21	869.85
225.22	869.9
225.23	869.95
225.24	870
225.25	870.04
225.26	870.09
225.27	870.14
225.28	870.19
225.29	870.24
225.3	870.29
225.31	870.33
225.32	870.38
225.33	870.43
225.34	870.48
225.35	870.53
225.36	870.57
225.37	870.62
225.38	870.67
225.39	870.72
225.4	870.77
225.41	870.82
225.42	870.86
225.43	870.91
225.44	870.96
225.45	871.01
225.46	871.06
225.47	871.11
225.48	871.15
225.49	871.2
225.5	871.25
225.51	871.3
225.52	871.35
225.53	871.39
225.54	871.44
225.55	871.49
225.56	871.54
225.57	871.59
225.58	871.64
225.59	871.68
225.6	871.73
225.61	871.78
225.62	871.83
225.63	871.88
225.64	871.93
225.65	871.97
225.66	872.02
225.67	872.07
225.68	872.12
225.69	872.17
225.7	872.21
225.71	872.26
225.72	872.31
225.73	872.36
225.74	872.41
225.75	872.46
225.76	872.5
225.77	872.55
225.78	872.6
225.79	872.65
225.8	872.7
225.81	872.75
225.82	872.79
225.83	872.84
225.84	872.89
225.85	872.94
225.86	872.99
225.87	873.03
225.88	873.08
225.89	873.13
225.9	873.18
225.91	873.23
225.92	873.28
225.93	873.32
225.94	873.37
225.95	873.42
225.96	873.47
225.97	873.52
225.98	873.57
225.99	873.61
226	873.66
226.01	873.71
226.02	873.76
226.03	873.81
226.04	873.85
226.05	873.9
226.06	873.95
226.07	874
226.08	874.05
226.09	874.1
226.1	874.14
226.11	874.19
226.12	874.24
226.13	874.29
226.14	874.34
226.15	874.38
226.16	874.43
226.17	874.48
226.18	874.53
226.19	874.58
226.2	874.63
226.21	874.67
226.22	874.72
226.23	874.77
226.24	874.82
226.25	874.87
226.26	874.92
226.27	874.96
226.28	875.01
226.29	875.06
226.3	875.11
226.31	875.16
226.32	875.2
226.33	875.25
226.34	875.3
226.35	875.35
226.36	875.4
226.37	875.45
226.38	875.49
226.39	875.54
226.4	875.59
226.41	875.64
226.42	875.69
226.43	875.74
226.44	875.78
226.45	875.83
226.46	875.88
226.47	875.93
226.48	875.98
226.49	876.02
226.5	876.07
226.51	876.12
226.52	876.17
226.53	876.22
226.54	876.27
226.55	876.31
226.56	876.36
226.57	876.41
226.58	876.46
226.59	876.51
226.6	876.56
226.61	876.6
226.62	876.65
226.63	876.7
226.64	876.75
226.65	876.8
226.66	876.84
226.67	876.89
226.68	876.94
226.69	876.99
226.7	877.04
226.71	877.09
226.72	877.13
226.73	877.18
226.74	877.23
226.75	877.28
226.76	877.33
226.77	877.37
226.78	877.42
226.79	877.47
226.8	877.52
226.81	877.57
226.82	877.62
226.83	877.66
226.84	877.71
226.85	877.76
226.86	877.81
226.87	877.86
226.88	877.91
226.89	877.95
226.9	878
226.91	878.05
226.92	878.1
226.93	878.15
226.94	878.19
226.95	878.24
226.96	878.29
226.97	878.34
226.98	878.39
226.99	878.44
227	878.48
227.01	878.53
227.02	878.58
227.03	878.63
227.04	878.68
227.05	878.73
227.06	878.77
227.07	878.82
227.08	878.87
227.09	878.92
227.1	878.97
227.11	879.01
227.12	879.06
227.13	879.11
227.14	879.16
227.15	879.21
227.16	879.26
227.17	879.3
227.18	879.35
227.19	879.4
227.2	879.45
227.21	879.5
227.22	879.55
227.23	879.59
227.24	879.64
227.25	879.69
227.26	879.74
227.27	879.79
227.28	879.83
227.29	879.88
227.3	879.93
227.31	879.98
227.32	880.03
227.33	880.08
227.34	880.12
227.35	880.17
227.36	880.22
227.37	880.27
227.38	880.32
227.39	880.36
227.4	880.41
227.41	880.46
227.42	880.51
227.43	880.56
227.44	880.61
227.45	880.65
227.46	880.7
227.47	880.75
227.48	880.8
227.49	880.85
227.5	880.9
227.51	880.94
227.52	880.99
227.53	881.04
227.54	881.09
227.55	881.14
227.56	881.18
227.57	881.23
227.58	881.28
227.59	881.33
227.6	881.38
227.61	881.43
227.62	881.47
227.63	881.52
227.64	881.57
227.65	881.62
227.66	881.67
227.67	881.72
227.68	881.76
227.69	881.81
227.7	881.86
227.71	881.91
227.72	881.96
227.73	882
227.74	882.05
227.75	882.1
227.76	882.15
227.77	882.2
227.78	882.25
227.79	882.29
227.8	882.34
227.81	882.39
227.82	882.44
227.83	882.49
227.84	882.54
227.85	882.58
227.86	882.63
227.87	882.68
227.88	882.73
227.89	882.78
227.9	882.82
227.91	882.87
227.92	882.92
227.93	882.97
227.94	883.02
227.95	883.07
227.96	883.11
227.97	883.16
227.98	883.21
227.99	883.26
228	883.31
228.01	883.36
228.02	883.4
228.03	883.45
228.04	883.5
228.05	883.55
228.06	883.6
228.07	883.64
228.08	883.69
228.09	883.74
228.1	883.79
228.11	883.84
228.12	883.89
228.13	883.93
228.14	883.98
228.15	884.03
228.16	884.08
228.17	884.13
228.18	884.17
228.19	884.22
228.2	884.27
228.21	884.32
228.22	884.37
228.23	884.42
228.24	884.46
228.25	884.51
228.26	884.56
228.27	884.61
228.28	884.66
228.29	884.71
228.3	884.75
228.31	884.8
228.32	884.85
228.33	884.9
228.34	884.95
228.35	884.99
228.36	885.04
228.37	885.09
228.38	885.14
228.39	885.19
228.4	885.24
228.41	885.28
228.42	885.33
228.43	885.38
228.44	885.43
228.45	885.48
228.46	885.53
228.47	885.57
228.48	885.62
228.49	885.67
228.5	885.72
228.51	885.77
228.52	885.81
228.53	885.86
228.54	885.91
228.55	885.96
228.56	886.01
228.57	886.06
228.58	886.1
228.59	886.15
228.6	886.2
228.61	886.25
228.62	886.3
228.63	886.35
228.64	886.39
228.65	886.44
228.66	886.49
228.67	886.54
228.68	886.59
228.69	886.63
228.7	886.68
228.71	886.73
228.72	886.78
228.73	886.83
228.74	886.88
228.75	886.92
228.76	886.97
228.77	887.02
228.78	887.07
228.79	887.12
228.8	887.16
228.81	887.21
228.82	887.26
228.83	887.31
228.84	887.36
228.85	887.41
228.86	887.45
228.87	887.5
228.88	887.55
228.89	887.6
228.9	887.65
228.91	887.7
228.92	887.74
228.93	887.79
228.94	887.84
228.95	887.89
228.96	887.94
228.97	887.98
228.98	888.03
228.99	888.08
229	888.13
229.01	888.18
229.02	888.23
229.03	888.27
229.04	888.32
229.05	888.37
229.06	888.42
229.07	888.47
229.08	888.52
229.09	888.56
229.1	888.61
229.11	888.66
229.12	888.71
229.13	888.76
229.14	888.8
229.15	888.85
229.16	888.9
229.17	888.95
229.18	889
229.19	889.05
229.2	889.09
229.21	889.14
229.22	889.19
229.23	889.24
229.24	889.29
229.25	889.34
229.26	889.38
229.27	889.43
229.28	889.48
229.29	889.53
229.3	889.58
229.31	889.62
229.32	889.67
229.33	889.72
229.34	889.77
229.35	889.82
229.36	889.87
229.37	889.91
229.38	889.96
229.39	890.01
229.4	890.06
229.41	890.11
229.42	890.16
229.43	890.2
229.44	890.25
229.45	890.3
229.46	890.35
229.47	890.4
229.48	890.44
229.49	890.49
229.5	890.54
229.51	890.59
229.52	890.64
229.53	890.69
229.54	890.73
229.55	890.78
229.56	890.83
229.57	890.88
229.58	890.93
229.59	890.97
229.6	891.02
229.61	891.07
229.62	891.12
229.63	891.17
229.64	891.22
229.65	891.26
229.66	891.31
229.67	891.36
229.68	891.41
229.69	891.46
229.7	891.51
229.71	891.55
229.72	891.6
229.73	891.65
229.74	891.7
229.75	891.75
229.76	891.79
229.77	891.84
229.78	891.89
229.79	891.94
229.8	891.99
229.81	892.04
229.82	892.08
229.83	892.13
229.84	892.18
229.85	892.23
229.86	892.28
229.87	892.33
229.88	892.37
229.89	892.42
229.9	892.47
229.91	892.52
229.92	892.57
229.93	892.61
229.94	892.66
229.95	892.71
229.96	892.76
229.97	892.81
229.98	892.86
229.99	892.9
230	892.95
230.01	893
230.02	893.05
230.03	893.1
230.04	893.15
230.05	893.19
230.06	893.24
230.07	893.29
230.08	893.34
230.09	893.39
230.1	893.43
230.11	893.48
230.12	893.53
230.13	893.58
230.14	893.63
230.15	893.68
230.16	893.72
230.17	893.77
230.18	893.82
230.19	893.87
230.2	893.92
230.21	893.96
230.22	894.01
230.23	894.06
230.24	894.11
230.25	894.16
230.26	894.21
230.27	894.25
230.28	894.3
230.29	894.35
230.3	894.4
230.31	894.45
230.32	894.5
230.33	894.54
230.34	894.59
230.35	894.64
230.36	894.69
230.37	894.74
230.38	894.78
230.39	894.83
230.4	894.88
230.41	894.93
230.42	894.98
230.43	895.03
230.44	895.07
230.45	895.12
230.46	895.17
230.47	895.22
230.48	895.27
230.49	895.32
230.5	895.36
230.51	895.41
230.52	895.46
230.53	895.51
230.54	895.56
230.55	895.6
230.56	895.65
230.57	895.7
230.58	895.75
230.59	895.8
230.6	895.85
230.61	895.89
230.62	895.94
230.63	895.99
230.64	896.04
230.65	896.09
230.66	896.14
230.67	896.18
230.68	896.23
230.69	896.28
230.7	896.33
230.71	896.38
230.72	896.42
230.73	896.47
230.74	896.52
230.75	896.57
230.76	896.62
230.77	896.67
230.78	896.71
230.79	896.76
230.8	896.81
230.81	896.86
230.82	896.91
230.83	896.96
230.84	897
230.85	897.05
230.86	897.1
230.87	897.15
230.88	897.2
230.89	897.24
230.9	897.29
230.91	897.34
230.92	897.39
230.93	897.44
230.94	897.49
230.95	897.53
230.96	897.58
230.97	897.63
230.98	897.68
230.99	897.73
231	897.77
231.01	897.82
231.02	897.87
231.03	897.92
231.04	897.97
231.05	898.02
231.06	898.06
231.07	898.11
231.08	898.16
231.09	898.21
231.1	898.26
231.11	898.31
231.12	898.35
231.13	898.4
231.14	898.45
231.15	898.5
231.16	898.55
231.17	898.59
231.18	898.64
231.19	898.69
231.2	898.74
231.21	898.79
231.22	898.84
231.23	898.88
231.24	898.93
231.25	898.98
231.26	899.03
231.27	899.08
231.28	899.13
231.29	899.17
231.3	899.22
231.31	899.27
231.32	899.32
231.33	899.37
231.34	899.41
231.35	899.46
231.36	899.51
231.37	899.56
231.38	899.61
231.39	899.66
231.4	899.7
231.41	899.75
231.42	899.8
231.43	899.85
231.44	899.9
231.45	899.95
231.46	899.99
231.47	900.04
231.48	900.09
231.49	900.14
231.5	900.19
231.51	900.23
231.52	900.28
231.53	900.33
231.54	900.38
231.55	900.43
231.56	900.48
231.57	900.52
231.58	900.57
231.59	900.62
231.6	900.67
231.61	900.72
231.62	900.76
231.63	900.81
231.64	900.86
231.65	900.91
231.66	900.96
231.67	901.01
231.68	901.05
231.69	901.1
231.7	901.15
231.71	901.2
231.72	901.25
231.73	901.3
231.74	901.34
231.75	901.39
231.76	901.44
231.77	901.49
231.78	901.54
231.79	901.58
231.8	901.63
231.81	901.68
231.82	901.73
231.83	901.78
231.84	901.83
231.85	901.87
231.86	901.92
231.87	901.97
231.88	902.02
231.89	902.07
231.9	902.12
231.91	902.16
231.92	902.21
231.93	902.26
231.94	902.31
231.95	902.36
231.96	902.4
231.97	902.45
231.98	902.5
231.99	902.55
232	902.6
232.01	902.65
232.02	902.69
232.03	902.74
232.04	902.79
232.05	902.84
232.06	902.89
232.07	902.94
232.08	902.98
232.09	903.03
232.1	903.08
232.11	903.13
232.12	903.18
232.13	903.22
232.14	903.27
232.15	903.32
232.16	903.37
232.17	903.42
232.18	903.47
232.19	903.51
232.2	903.56
232.21	903.61
232.22	903.66
232.23	903.71
232.24	903.76
232.25	903.8
232.26	903.85
232.27	903.9
232.28	903.95
232.29	904
232.3	904.04
232.31	904.09
232.32	904.14
232.33	904.19
232.34	904.24
232.35	904.29
232.36	904.33
232.37	904.38
232.38	904.43
232.39	904.48
232.4	904.53
232.41	904.57
232.42	904.62
232.43	904.67
232.44	904.72
232.45	904.77
232.46	904.82
232.47	904.86
232.48	904.91
232.49	904.96
232.5	905.01
232.51	905.06
232.52	905.11
232.53	905.15
232.54	905.2
232.55	905.25
232.56	905.3
232.57	905.35
232.58	905.39
232.59	905.44
232.6	905.49
232.61	905.54
232.62	905.59
232.63	905.64
232.64	905.68
232.65	905.73
232.66	905.78
232.67	905.83
232.68	905.88
232.69	905.93
232.7	905.97
232.71	906.02
232.72	906.07
232.73	906.12
232.74	906.17
232.75	906.21
232.76	906.26
232.77	906.31
232.78	906.36
232.79	906.41
232.8	906.46
232.81	906.5
232.82	906.55
232.83	906.6
232.84	906.65
232.85	906.7
232.86	906.75
232.87	906.79
232.88	906.84
232.89	906.89
232.9	906.94
232.91	906.99
232.92	907.03
232.93	907.08
232.94	907.13
232.95	907.18
232.96	907.23
232.97	907.28
232.98	907.32
232.99	907.37
233	907.42
233.01	907.47
233.02	907.52
233.03	907.56
233.04	907.61
233.05	907.66
233.06	907.71
233.07	907.76
233.08	907.81
233.09	907.85
233.1	907.9
233.11	907.95
233.12	908
233.13	908.05
233.14	908.1
233.15	908.14
233.16	908.19
233.17	908.24
233.18	908.29
233.19	908.34
233.2	908.38
233.21	908.43
233.22	908.48
233.23	908.53
233.24	908.58
233.25	908.63
233.26	908.67
233.27	908.72
233.28	908.77
233.29	908.82
233.3	908.87
233.31	908.92
233.32	908.96
233.33	909.01
233.34	909.06
233.35	909.11
233.36	909.16
233.37	909.2
233.38	909.25
233.39	909.3
233.4	909.35
233.41	909.4
233.42	909.45
233.43	909.49
233.44	909.54
233.45	909.59
233.46	909.64
233.47	909.69
233.48	909.74
233.49	909.78
233.5	909.83
233.51	909.88
233.52	909.93
233.53	909.98
233.54	910.02
233.55	910.07
233.56	910.12
233.57	910.17
233.58	910.22
233.59	910.27
233.6	910.31
233.61	910.36
233.62	910.41
233.63	910.46
233.64	910.51
233.65	910.56
233.66	910.6
233.67	910.65
233.68	910.7
233.69	910.75
233.7	910.8
233.71	910.84
233.72	910.89
233.73	910.94
233.74	910.99
233.75	911.04
233.76	911.09
233.77	911.13
233.78	911.18
233.79	911.23
233.8	911.28
233.81	911.33
233.82	911.37
233.83	911.42
233.84	911.47
233.85	911.52
233.86	911.57
233.87	911.62
233.88	911.66
233.89	911.71
233.9	911.76
233.91	911.81
233.92	911.86
233.93	911.91
233.94	911.95
233.95	912
233.96	912.05
233.97	912.1
233.98	912.15
233.99	912.19
234	912.24
234.01	912.29
234.02	912.34
234.03	912.39
234.04	912.44
234.05	912.48
234.06	912.53
234.07	912.58
234.08	912.63
234.09	912.68
234.1	912.73
234.11	912.77
234.12	912.82
234.13	912.87
234.14	912.92
234.15	912.97
234.16	913.01
234.17	913.06
234.18	913.11
234.19	913.16
234.2	913.21
234.21	913.26
234.22	913.3
234.23	913.35
234.24	913.4
234.25	913.45
234.26	913.5
234.27	913.55
234.28	913.59
234.29	913.64
234.3	913.69
234.31	913.74
234.32	913.79
234.33	913.83
234.34	913.88
234.35	913.93
234.36	913.98
234.37	914.03
234.38	914.08
234.39	914.12
234.4	914.17
234.41	914.22
234.42	914.27
234.43	914.32
234.44	914.36
234.45	914.41
234.46	914.46
234.47	914.51
234.48	914.56
234.49	914.61
234.5	914.65
234.51	914.7
234.52	914.75
234.53	914.8
234.54	914.85
234.55	914.9
234.56	914.94
234.57	914.99
234.58	915.04
234.59	915.09
234.6	915.14
234.61	915.18
234.62	915.23
234.63	915.28
234.64	915.33
234.65	915.38
234.66	915.43
234.67	915.47
234.68	915.52
234.69	915.57
234.7	915.62
234.71	915.67
234.72	915.72
234.73	915.76
234.74	915.81
234.75	915.86
234.76	915.91
234.77	915.96
234.78	916
234.79	916.05
234.8	916.1
234.81	916.15
234.82	916.2
234.83	916.25
234.84	916.29
234.85	916.34
234.86	916.39
234.87	916.44
234.88	916.49
234.89	916.54
234.9	916.58
234.91	916.63
234.92	916.68
234.93	916.73
234.94	916.78
234.95	916.82
234.96	916.87
234.97	916.92
234.98	916.97
234.99	917.02
235	917.07
235.01	917.11
235.02	917.16
235.03	917.21
235.04	917.26
235.05	917.31
235.06	917.36
235.07	917.4
235.08	917.45
235.09	917.5
235.1	917.55
235.11	917.6
235.12	917.64
235.13	917.69
235.14	917.74
235.15	917.79
235.16	917.84
235.17	917.89
235.18	917.93
235.19	917.98
235.2	918.03
235.21	918.08
235.22	918.13
235.23	918.17
235.24	918.22
235.25	918.27
235.26	918.32
235.27	918.37
235.28	918.42
235.29	918.46
235.3	918.51
235.31	918.56
235.32	918.61
235.33	918.66
235.34	918.71
235.35	918.75
235.36	918.8
235.37	918.85
235.38	918.9
235.39	918.95
235.4	918.99
235.41	919.04
235.42	919.09
235.43	919.14
235.44	919.19
235.45	919.24
235.46	919.28
235.47	919.33
235.48	919.38
235.49	919.43
235.5	919.48
235.51	919.53
235.52	919.57
235.53	919.62
235.54	919.67
235.55	919.72
235.56	919.77
235.57	919.81
235.58	919.86
235.59	919.91
235.6	919.96
235.61	920.01
235.62	920.06
235.63	920.1
235.64	920.15
235.65	920.2
235.66	920.25
235.67	920.3
235.68	920.35
235.69	920.39
235.7	920.44
235.71	920.49
235.72	920.54
235.73	920.59
235.74	920.63
235.75	920.68
235.76	920.73
235.77	920.78
235.78	920.83
235.79	920.88
235.8	920.92
235.81	920.97
235.82	921.02
235.83	921.07
235.84	921.12
235.85	921.16
235.86	921.21
235.87	921.26
235.88	921.31
235.89	921.36
235.9	921.41
235.91	921.45
235.92	921.5
235.93	921.55
235.94	921.6
235.95	921.65
235.96	921.7
235.97	921.74
235.98	921.79
235.99	921.84
236	921.89
236.01	921.94
236.02	921.98
236.03	922.03
236.04	922.08
236.05	922.13
236.06	922.18
236.07	922.23
236.08	922.27
236.09	922.32
236.1	922.37
236.11	922.42
236.12	922.47
236.13	922.52
236.14	922.56
236.15	922.61
236.16	922.66
236.17	922.71
236.18	922.76
236.19	922.8
236.2	922.85
236.21	922.9
236.22	922.95
236.23	923
236.24	923.05
236.25	923.09
236.26	923.14
236.27	923.19
236.28	923.24
236.29	923.29
236.3	923.34
236.31	923.38
236.32	923.43
236.33	923.48
236.34	923.53
236.35	923.58
236.36	923.62
236.37	923.67
236.38	923.72
236.39	923.77
236.4	923.82
236.41	923.87
236.42	923.91
236.43	923.96
236.44	924.01
236.45	924.06
236.46	924.11
236.47	924.16
236.48	924.2
236.49	924.25
236.5	924.3
236.51	924.35
236.52	924.4
236.53	924.44
236.54	924.49
236.55	924.54
236.56	924.59
236.57	924.64
236.58	924.69
236.59	924.73
236.6	924.78
236.61	924.83
236.62	924.88
236.63	924.93
236.64	924.97
236.65	925.02
236.66	925.07
236.67	925.12
236.68	925.17
236.69	925.22
236.7	925.26
236.71	925.31
236.72	925.36
236.73	925.41
236.74	925.46
236.75	925.51
236.76	925.55
236.77	925.6
236.78	925.65
236.79	925.7
236.8	925.75
236.81	925.79
236.82	925.84
236.83	925.89
236.84	925.94
236.85	925.99
236.86	926.04
236.87	926.08
236.88	926.13
236.89	926.18
236.9	926.23
236.91	926.28
236.92	926.33
236.93	926.37
236.94	926.42
236.95	926.47
236.96	926.52
236.97	926.57
236.98	926.61
236.99	926.66
237	926.71
237.01	926.76
237.02	926.81
237.03	926.86
237.04	926.9
237.05	926.95
237.06	927
237.07	927.05
237.08	927.1
237.09	927.15
237.1	927.19
237.11	927.24
237.12	927.29
237.13	927.34
237.14	927.39
237.15	927.43
237.16	927.48
237.17	927.53
237.18	927.58
237.19	927.63
237.2	927.68
237.21	927.72
237.22	927.77
237.23	927.82
237.24	927.87
237.25	927.92
237.26	927.96
237.27	928.01
237.28	928.06
237.29	928.11
237.3	928.16
237.31	928.21
237.32	928.25
237.33	928.3
237.34	928.35
237.35	928.4
237.36	928.45
237.37	928.5
237.38	928.54
237.39	928.59
237.4	928.64
237.41	928.69
237.42	928.74
237.43	928.78
237.44	928.83
237.45	928.88
237.46	928.93
237.47	928.98
237.48	929.03
237.49	929.07
237.5	929.12
237.51	929.17
237.52	929.22
237.53	929.27
237.54	929.32
237.55	929.36
237.56	929.41
237.57	929.46
237.58	929.51
237.59	929.56
237.6	929.6
237.61	929.65
237.62	929.7
237.63	929.75
237.64	929.8
237.65	929.85
237.66	929.89
237.67	929.94
237.68	929.99
237.69	930.04
237.7	930.09
237.71	930.14
237.72	930.18
237.73	930.23
237.74	930.28
237.75	930.33
237.76	930.38
237.77	930.42
237.78	930.47
237.79	930.52
237.8	930.57
237.81	930.62
237.82	930.67
237.83	930.71
237.84	930.76
237.85	930.81
237.86	930.86
237.87	930.91
237.88	930.96
237.89	931
237.9	931.05
237.91	931.1
237.92	931.15
237.93	931.2
237.94	931.24
237.95	931.29
237.96	931.34
237.97	931.39
237.98	931.44
237.99	931.49
238	931.53
238.01	931.58
238.02	931.63
238.03	931.68
238.04	931.73
238.05	931.77
238.06	931.82
238.07	931.87
238.08	931.92
238.09	931.97
238.1	932.02
238.11	932.06
238.12	932.11
238.13	932.16
238.14	932.21
238.15	932.26
238.16	932.31
238.17	932.35
238.18	932.4
238.19	932.45
238.2	932.5
238.21	932.55
238.22	932.59
238.23	932.64
238.24	932.69
238.25	932.74
238.26	932.79
238.27	932.84
238.28	932.88
238.29	932.93
238.3	932.98
238.31	933.03
238.32	933.08
238.33	933.13
238.34	933.17
238.35	933.22
238.36	933.27
238.37	933.32
238.38	933.37
238.39	933.41
238.4	933.46
238.41	933.51
238.42	933.56
238.43	933.61
238.44	933.66
238.45	933.7
238.46	933.75
238.47	933.8
238.48	933.85
238.49	933.9
238.5	933.95
238.51	933.99
238.52	934.04
238.53	934.09
238.54	934.14
238.55	934.19
238.56	934.23
238.57	934.28
238.58	934.33
238.59	934.38
238.6	934.43
238.61	934.48
238.62	934.52
238.63	934.57
238.64	934.62
238.65	934.67
238.66	934.72
238.67	934.76
238.68	934.81
238.69	934.86
238.7	934.91
238.71	934.96
238.72	935.01
238.73	935.05
238.74	935.1
238.75	935.15
238.76	935.2
238.77	935.25
238.78	935.3
238.79	935.34
238.8	935.39
238.81	935.44
238.82	935.49
238.83	935.54
238.84	935.58
238.85	935.63
238.86	935.68
238.87	935.73
238.88	935.78
238.89	935.83
238.9	935.87
238.91	935.92
238.92	935.97
238.93	936.02
238.94	936.07
238.95	936.12
238.96	936.16
238.97	936.21
238.98	936.26
238.99	936.31
239	936.36
239.01	936.4
239.02	936.45
239.03	936.5
239.04	936.55
239.05	936.6
239.06	936.65
239.07	936.69
239.08	936.74
239.09	936.79
239.1	936.84
239.11	936.89
239.12	936.94
239.13	936.98
239.14	937.03
239.15	937.08
239.16	937.13
239.17	937.18
239.18	937.22
239.19	937.27
239.2	937.32
239.21	937.37
239.22	937.42
239.23	937.47
239.24	937.51
239.25	937.56
239.26	937.61
239.27	937.66
239.28	937.71
239.29	937.75
239.3	937.8
239.31	937.85
239.32	937.9
239.33	937.95
239.34	938
239.35	938.04
239.36	938.09
239.37	938.14
239.38	938.19
239.39	938.24
239.4	938.29
239.41	938.33
239.42	938.38
239.43	938.43
239.44	938.48
239.45	938.53
239.46	938.57
239.47	938.62
239.48	938.67
239.49	938.72
239.5	938.77
239.51	938.82
239.52	938.86
239.53	938.91
239.54	938.96
239.55	939.01
239.56	939.06
239.57	939.11
239.58	939.15
239.59	939.2
239.6	939.25
239.61	939.3
239.62	939.35
239.63	939.39
239.64	939.44
239.65	939.49
239.66	939.54
239.67	939.59
239.68	939.64
239.69	939.68
239.7	939.73
239.71	939.78
239.72	939.83
239.73	939.88
239.74	939.93
239.75	939.97
239.76	940.02
239.77	940.07
239.78	940.12
239.79	940.17
239.8	940.21
239.81	940.26
239.82	940.31
239.83	940.36
239.84	940.41
239.85	940.46
239.86	940.5
239.87	940.55
239.88	940.6
239.89	940.65
239.9	940.7
239.91	940.75
239.92	940.79
239.93	940.84
239.94	940.89
239.95	940.94
239.96	940.99
239.97	941.03
239.98	941.08
239.99	941.13
240	941.18
240.01	941.23
240.02	941.28
240.03	941.32
240.04	941.37
240.05	941.42
240.06	941.47
240.07	941.52
240.08	941.57
240.09	941.62
240.1	941.66
240.11	941.71
240.12	941.76
240.13	941.81
240.14	941.86
240.15	941.91
240.16	941.95
240.17	942
240.18	942.05
240.19	942.1
240.2	942.15
240.21	942.2
240.22	942.24
240.23	942.29
240.24	942.34
240.25	942.39
240.26	942.44
240.27	942.49
240.28	942.54
240.29	942.58
240.3	942.63
240.31	942.68
240.32	942.73
240.33	942.78
240.34	942.83
240.35	942.87
240.36	942.92
240.37	942.97
240.38	943.02
240.39	943.07
240.4	943.12
240.41	943.16
240.42	943.21
240.43	943.26
240.44	943.31
240.45	943.36
240.46	943.41
240.47	943.46
240.48	943.5
240.49	943.55
240.5	943.6
240.51	943.65
240.52	943.7
240.53	943.75
240.54	943.79
240.55	943.84
240.56	943.89
240.57	943.94
240.58	943.99
240.59	944.04
240.6	944.09
240.61	944.13
240.62	944.18
240.63	944.23
240.64	944.28
240.65	944.33
240.66	944.38
240.67	944.42
240.68	944.47
240.69	944.52
240.7	944.57
240.71	944.62
240.72	944.67
240.73	944.71
240.74	944.76
240.75	944.81
240.76	944.86
240.77	944.91
240.78	944.96
240.79	945.01
240.8	945.05
240.81	945.1
240.82	945.15
240.83	945.2
240.84	945.25
240.85	945.3
240.86	945.34
240.87	945.39
240.88	945.44
240.89	945.49
240.9	945.54
240.91	945.59
240.92	945.63
240.93	945.68
240.94	945.73
240.95	945.78
240.96	945.83
240.97	945.88
240.98	945.93
240.99	945.97
241	946.02
241.01	946.07
241.02	946.12
241.03	946.17
241.04	946.22
241.05	946.26
241.06	946.31
241.07	946.36
241.08	946.41
241.09	946.46
241.1	946.51
241.11	946.56
241.12	946.6
241.13	946.65
241.14	946.7
241.15	946.75
241.16	946.8
241.17	946.85
241.18	946.89
241.19	946.94
241.2	946.99
241.21	947.04
241.22	947.09
241.23	947.14
241.24	947.18
241.25	947.23
241.26	947.28
241.27	947.33
241.28	947.38
241.29	947.43
241.3	947.48
241.31	947.52
241.32	947.57
241.33	947.62
241.34	947.67
241.35	947.72
241.36	947.77
241.37	947.81
241.38	947.86
241.39	947.91
241.4	947.96
241.41	948.01
241.42	948.06
241.43	948.11
241.44	948.15
241.45	948.2
241.46	948.25
241.47	948.3
241.48	948.35
241.49	948.4
241.5	948.44
241.51	948.49
241.52	948.54
241.53	948.59
241.54	948.64
241.55	948.69
241.56	948.73
241.57	948.78
241.58	948.83
241.59	948.88
241.6	948.93
241.61	948.98
241.62	949.03
241.63	949.07
241.64	949.12
241.65	949.17
241.66	949.22
241.67	949.27
241.68	949.32
241.69	949.36
241.7	949.41
241.71	949.46
241.72	949.51
241.73	949.56
241.74	949.61
241.75	949.65
241.76	949.7
241.77	949.75
241.78	949.8
241.79	949.85
241.8	949.9
241.81	949.95
241.82	949.99
241.83	950.04
241.84	950.09
241.85	950.14
241.86	950.3
241.87	1425.59
241.88	2940.45
241.89	2547.6
241.9	2003.98
241.91	1908.94
241.92	1902.09
241.93	1900.75
241.94	1725.82
241.95	1619.71
241.96	1482.13
241.97	1497.45
241.98	1529.56
241.99	1575.16
242	1574.64
242.01	1568.22
242.02	1788.32
242.03	1854.12
242.04	2168.47
242.05	2182.52
242.06	2159.63
242.07	2074.04
242.08	2030.54
242.09	2004.31
242.1	2137.08
242.11	2154.53
242.12	2200.73
242.13	2120.35
242.14	2120.44
242.15	2157.55
242.16	1995.12
242.17	1995.2
242.18	1899.12
242.19	1925.89
242.2	2176.6
242.21	2293.09
242.22	2285.37
242.23	2049.18
242.24	1871.22
242.25	1892.33
242.26	1995.09
242.27	2132.74
242.28	2412.14
242.29	2318.34
242.3	2327.66
242.31	2477.66
242.32	2567.96
242.33	2562.92
242.34	2550.98
242.35	2648.19
242.36	2741.62
242.37	2639.15
242.38	2561.96
242.39	2530.2
242.4	2554.7
242.41	2559.23
242.42	2579.39
242.43	2546.86
242.44	2495.89
242.45	2583.87
242.46	2788.3
242.47	2849.17
242.48	2708.26
242.49	2637.8
242.5	2602.13
242.51	2821.52
242.52	2980.44
242.53	3076.53
242.54	3161.78
242.55	3187.2
242.56	3268.46
242.57	3300.91
242.58	3349.15
242.59	3354.4
242.6	3359.51
242.61	3518.82
242.62	3596.81
242.63	3612.95
242.64	3747.41
242.65	3754.69
242.66	3934.77
242.67	3856.16
242.68	3812.16
242.69	3848.75
242.7	3930.17
242.71	4255.19
242.72	4240.6
242.73	4246.31
242.74	4264.79
242.75	4323.47
242.76	4427.61
242.77	4569.94
242.78	4603.07
242.79	4625.5
242.8	4668.08
242.81	4790.33
242.82	4842.91
242.83	4835.65
242.84	4831.7
242.85	4781.45
242.86	4906.19
242.87	5003.85
242.88	5376.26
242.89	5381.11
242.9	5450.34
242.91	5407.98
242.92	5409.7
242.93	5546.49
242.94	5597.83
242.95	5778.98
242.96	5817.57
242.97	5899.15
242.98	5818.78
242.99	5763.05
243	5837.26
243.01	5933.56
243.02	5951.07
243.03	5973.29
243.04	5992.52
243.05	6173.31
243.06	6342.43
243.07	6357.06
243.08	6390.65
243.09	6440.65
243.1	6607.09
243.11	6658.14
243.12	6660.24
243.13	6636.14
243.14	6636.57
243.15	6538.26
243.16	6543.25
243.17	6779.54
243.18	6904.54
243.19	6974.19
243.2	7043.85
243.21	7098.02
243.22	7192.24
243.23	7201.15
243.24	7040.08
243.25	6957.32
243.26	7001.87
243.27	7047.21
243.28	7002.31
243.29	7035.42
243.3	7062.6
243.31	7159.16
243.32	7382.32
243.33	7408.12
243.34	7510.63
243.35	7592.65
243.36	7664.68
243.37	7605.01
243.38	7483.33
243.39	7487.47
243.4	7633.67
243.41	7867.33
243.42	7858.05
243.43	7854.76
243.44	7888.11
243.45	7904.09
243.46	8053.99
243.47	8112.61
243.48	8207.69
243.49	8259.91
243.5	8282.21
243.51	8368.51
243.52	8368.16
243.53	8360.5
243.54	8370.85
243.55	8384.39
243.56	8457.62
243.57	8487.06
243.58	8688.51
243.59	8727.23
243.6	8855.52
243.61	8830.34
243.62	8702.67
243.63	8640.92
243.64	8770.45
243.65	8773.67
243.66	8888.74
243.67	8985.46
243.68	9020.36
243.69	9081.67
243.7	9148.05
243.71	9072.09
243.72	9094.6
243.73	9112.53
243.74	9358.72
243.75	9444.64
243.76	9498.46
243.77	9499.1
243.78	9508.95
243.79	9501.93
243.8	9488.55
243.81	9588.45
243.82	9629.61
243.83	9576.02
243.84	9501.54
243.85	9471.5
243.86	9530.11
243.87	9909.77
243.88	9979.15
243.89	9893.57
243.9	9838.27
243.91	9854.45
243.92	9855.11
243.93	9925.24
243.94	10002.53
243.95	10086.83
243.96	10231.93
243.97	10266.51
243.98	10271.7
243.99	10294.17
244	10432.66
244.01	10458.23
244.02	10529.71
244.03	10608.97
244.04	10644.98
244.05	10659.7
244.06	10673.34
244.07	10755.86
244.08	10768.81
244.09	10806.05
244.1	10838.65
244.11	10861.77
244.12	10917.28
244.13	10915.04
244.14	10885.65
244.15	10786.03
244.16	10686.41
244.17	10721.99
244.18	10789.56
244.19	10822.17
244.2	10849.21
244.21	10907.3
244.22	10979.45
244.23	11012.25
244.24	11227.49
244.25	11319.23
244.26	11383.23
244.27	11359.88
244.28	11288.27
244.29	11321.75
244.3	11326.57
244.31	11413.18
244.32	11448.1
244.33	11504.84
244.34	11573.86
244.35	11466.94
244.36	11454.42
244.37	11455.2
244.38	11469.29
244.39	11562.48
244.4	11563.27
244.41	11658.52
244.42	11703.91
244.43	11710.4
244.44	11628.34
244.45	11475.24
244.46	11473.45
244.47	11470.36
244.48	11604.43
244.49	11721.09
244.5	11660.69
244.51	11674.22
244.52	11715.34
244.53	11738.87
244.54	11741.38
244.55	11768.23
244.56	11825.68
244.57	11868.49
244.58	11859.55
244.59	11833.98
244.6	11645.11
244.61	11652.28
244.62	11786.5
244.63	11857.28
244.64	12000.16
244.65	12000.99
244.66	11989.7
244.67	12091.07
244.68	12147.49
244.69	12221.61
244.7	12222.45
244.71	12114.52
244.72	11974.91
244.73	11955.18
244.74	12073.72
244.75	11965.29
244.76	11873.64
244.77	11930.93
244.78	11940.19
244.79	11941.01
244.8	12153.84
244.81	12254.67
244.82	12255.59
244.83	12461.01
244.84	12463.43
244.85	12464.28
244.86	12457.55
244.87	12339.45
244.88	12159.97
244.89	12100.69
244.9	12187.34
244.91	12198.01
244.92	12335.29
244.93	12233.05
244.94	12138.72
244.95	12054.8
244.96	12051.04
244.97	12193.57
244.98	12194.41
244.99	12533.15
245	12523.56
245.01	12449.69
245.02	12307.9
245.03	12292.85
245.04	12170
245.05	12175.33
245.06	12187.73
245.07	12188.57
245.08	12232.52
245.09	12237.09
245.1	12211.35
245.11	12251.71
245.12	12208.92
245.13	12148.56
245.14	12149.4
245.15	11950.19
245.16	11939.66
245.17	11955.51
245.18	12083.71
245.19	12283.78
245.2	12482.4
245.21	12378.4
245.22	12279.99
245.23	12266.87
245.24	12211.27
245.25	12177.12
245.26	12177.96
245.27	12144.69
245.28	12120.86
245.29	12090.72
245.3	12006.57
245.31	11890.03
245.32	11842.04
245.33	11766.52
245.34	11769.73
245.35	11780.79
245.36	11750.11
245.37	11738.05
245.38	11770.94
245.39	11807.85
245.4	11949.38
245.41	11864.31
245.42	11812.48
245.43	11833.13
245.44	11837.91
245.45	11781.94
245.46	11779.78
245.47	11771.68
245.48	11772.48
245.49	11805.59
245.5	11761.82
245.51	11663.85
245.52	11627.3
245.53	11621.5
245.54	11601.97
245.55	11594.05
245.56	11498.08
245.57	11463.07
245.58	11519.01
245.59	11479.75
245.6	11462.12
245.61	11399.46
245.62	11287.44
245.63	11203.06
245.64	11108.9
245.65	11130.68
245.66	11142.39
245.67	11216.44
245.68	11043.5
245.69	11006.11
245.7	10893.27
245.71	10760.66
245.72	10687.72
245.73	10671.23
245.74	10695.86
245.75	10745.12
245.76	10788.88
245.77	10765.14
245.78	10761.88
245.79	10762.61
245.8	10621.97
245.81	10558.89
245.82	10574.55
245.83	10546.48
245.84	10514.72
245.85	10385.38
245.86	10168.68
245.87	10040.42
245.88	10041.09
245.89	10026.83
245.9	9963.83
245.91	9950.57
245.92	9905.91
245.93	9574.22
245.94	9320.55
245.95	9281.95
245.96	9162.79
245.97	9090.54
245.98	9021.15
245.99	8988.61
246	8924.89
246.01	8774.98
246.02	8690.9
246.03	8648.69
246.04	8590.18
246.05	8367.98
246.06	8316.28
246.07	8252.43
246.08	7938.61
246.09	7819.55
246.1	7726.1
246.11	7560.86
246.12	7519.92
246.13	7351.74
246.14	6962.22
246.15	6840.47
246.16	6725.87
246.17	6672.91
246.18	6586.56
246.19	6586.97
246.2	6375.78
246.21	6322.16
246.22	6429.26
246.23	6429.66
246.24	6273.3
246.25	5832.94
246.26	5647.83
246.27	5568.12
246.28	5494.56
246.29	5317.8
246.3	5306.81
246.31	5150.52
246.32	4987.81
246.33	4776.34
246.34	4671.34
246.35	4546.95
246.36	4443.62
246.37	4163.77
246.38	4164
246.39	4151.81
246.4	4118.37
246.41	4100.12
246.42	3917.03
246.43	3809.58
246.44	3523.27
246.45	3511.52
246.46	3448.27
246.47	3415.74
246.48	3322.07
246.49	3226.14
246.5	3022.08
246.51	2992.32
246.52	2835.49
246.53	2797.95
246.54	2786.83
246.55	2710.62
246.56	2640.27
246.57	2390.64
246.58	2324.35
246.59	2154.37
246.6	2015.29
246.61	2009.07
246.62	1998.88
246.63	1978.23
246.64	1968.99
246.65	2010.97
246.66	2033.99
246.67	2043.62
246.68	2043.69
246.69	1850.72
246.7	1596.04
246.71	1064.09
246.72	1064.14
246.73	1064.19
246.74	1064.23
246.75	1064.28
246.76	1064.33
246.77	1064.37
246.78	1064.42
246.79	1064.47
246.8	1064.52
246.81	1064.56
246.82	1064.61
246.83	1064.66
246.84	1064.7
246.85	1064.75
246.86	1064.8
246.87	1064.84
246.88	1064.89
246.89	1064.94
246.9	1064.98
246.91	1065.03
246.92	1065.08
246.93	1065.12
246.94	1065.17
246.95	1065.22
246.96	1065.27
246.97	1065.31
246.98	1065.36
246.99	1065.41
247	1065.45
247.01	1065.5
247.02	1065.55
247.03	1065.59
247.04	1065.64
247.05	1065.69
247.06	1065.73
247.07	1065.78
247.08	1065.83
247.09	1065.88
247.1	1065.92
247.11	1065.97
247.12	1066.02
247.13	1066.06
247.14	1066.11
247.15	1066.16
247.16	1066.2
247.17	1066.25
247.18	1066.3
247.19	1066.34
247.2	1066.39
247.21	1066.44
247.22	1066.49
247.23	1066.53
247.24	1066.58
247.25	1066.63
247.26	1066.67
247.27	1066.72
247.28	1066.77
247.29	1066.81
247.3	1066.86
247.31	1066.91
247.32	1066.95
247.33	1067
247.34	1067.05
247.35	1067.1
247.36	1067.14
247.37	1067.19
247.38	1067.24
247.39	1067.28
247.4	1067.33
247.41	1067.38
247.42	1067.42
247.43	1067.47
247.44	1067.52
247.45	1067.56
247.46	1067.61
247.47	1067.66
247.48	1067.71
247.49	1067.75
247.5	1067.8
247.51	1067.85
247.52	1067.89
247.53	1067.94
247.54	1067.99
247.55	1068.03
247.56	1068.08
247.57	1068.13
247.58	1068.17
247.59	1068.22
247.6	1068.27
247.61	1068.31
247.62	1068.36
247.63	1068.41
247.64	1068.46
247.65	1068.5
247.66	1068.55
247.67	1068.6
247.68	1068.64
247.69	1068.69
247.7	1068.74
247.71	1068.78
247.72	1068.83
247.73	1068.88
247.74	1068.92
247.75	1068.97
247.76	1069.02
247.77	1069.07
247.78	1069.11
247.79	1069.16
247.8	1069.21
247.81	1069.25
247.82	1069.3
247.83	1069.35
247.84	1069.39
247.85	1069.44
247.86	1069.49
247.87	1069.53
247.88	1069.58
247.89	1069.63
247.9	1069.68
247.91	1069.72
247.92	1069.77
247.93	1069.82
247.94	1069.86
247.95	1069.91
247.96	1069.96
247.97	1070
247.98	1070.05
247.99	1070.1
248	1070.14
248.01	1070.19
248.02	1070.24
248.03	1070.29
248.04	1070.33
248.05	1070.38
248.06	1070.43
248.07	1070.47
248.08	1070.52
248.09	1070.57
248.1	1070.61
248.11	1070.66
248.12	1070.71
248.13	1070.75
248.14	1070.8
248.15	1070.85
248.16	1070.89
248.17	1070.94
248.18	1070.99
248.19	1071.04
248.2	1071.08
248.21	1071.13
248.22	1071.18
248.23	1071.22
248.24	1071.27
248.25	1071.32
248.26	1071.36
248.27	1071.41
248.28	1071.46
248.29	1071.5
248.3	1071.55
248.31	1071.6
248.32	1071.65
248.33	1071.69
248.34	1071.74
248.35	1071.79
248.36	1071.83
248.37	1071.88
248.38	1071.93
248.39	1071.97
248.4	1072.02
248.41	1072.07
248.42	1072.11
248.43	1072.16
248.44	1072.21
248.45	1072.26
248.46	1072.3
248.47	1072.35
248.48	1072.4
248.49	1072.44
248.5	1072.49
248.51	1072.54
248.52	1072.58
248.53	1072.63
248.54	1072.68
248.55	1072.72
248.56	1072.77
248.57	1072.82
248.58	1072.87
248.59	1072.91
248.6	1072.96
248.61	1073.01
248.62	1073.05
248.63	1073.1
248.64	1073.15
248.65	1073.19
248.66	1073.24
248.67	1073.29
248.68	1073.33
248.69	1073.38
248.7	1073.43
248.71	1073.47
248.72	1073.52
248.73	1073.57
248.74	1073.62
248.75	1073.66
248.76	1073.71
248.77	1073.76
248.78	1073.8
248.79	1073.85
248.8	1073.9
248.81	1073.94
248.82	1073.99
248.83	1074.04
248.84	1074.08
248.85	1074.13
248.86	1074.18
248.87	1074.23
248.88	1074.27
248.89	1074.32
248.9	1074.37
248.91	1074.41
248.92	1074.46
248.93	1074.51
248.94	1074.55
248.95	1074.6
248.96	1074.65
248.97	1074.69
248.98	1074.74
248.99	1074.79
249	1074.84
249.01	1074.88
249.02	1074.93
249.03	1074.98
249.04	1075.02
249.05	1075.07
249.06	1075.12
249.07	1075.16
249.08	1075.21
249.09	1075.26
249.1	1075.3
249.11	1075.35
249.12	1075.4
249.13	1075.45
249.14	1075.49
249.15	1075.54
249.16	1075.59
249.17	1075.63
249.18	1075.68
249.19	1075.73
249.2	1075.77
249.21	1075.82
249.22	1075.87
249.23	1075.91
249.24	1075.96
249.25	1076.01
249.26	1076.05
249.27	1076.1
249.28	1076.15
249.29	1076.2
249.3	1076.24
249.31	1076.29
249.32	1076.34
249.33	1076.38
249.34	1076.43
249.35	1076.48
249.36	1076.52
249.37	1076.57
249.38	1076.62
249.39	1076.66
249.4	1076.71
249.41	1076.76
249.42	1076.81
249.43	1076.85
249.44	1076.9
249.45	1076.95
249.46	1076.99
249.47	1077.04
249.48	1077.09
249.49	1077.13
249.5	1077.18
249.51	1077.23
249.52	1077.27
249.53	1077.32
249.54	1077.37
249.55	1077.42
249.56	1077.46
249.57	1077.51
249.58	1077.56
249.59	1077.6
249.6	1077.65
249.61	1077.7
249.62	1077.74
249.63	1077.79
249.64	1077.84
249.65	1077.88
249.66	1077.93
249.67	1077.98
249.68	1078.03
249.69	1078.07
249.7	1078.12
249.71	1078.17
249.72	1078.21
249.73	1078.26
249.74	1078.31
249.75	1078.35
249.76	1078.4
249.77	1078.45
249.78	1078.49
249.79	1078.54
249.8	1078.59
249.81	1078.63
249.82	1078.68
249.83	1078.73
249.84	1078.78
249.85	1078.82
249.86	1078.87
249.87	1078.92
249.88	1078.96
249.89	1079.01
249.9	1079.06
249.91	1079.1
249.92	1079.15
249.93	1079.2
249.94	1079.24
249.95	1079.29
249.96	1079.34
249.97	1079.39
249.98	1079.43
249.99	1079.48
250	1079.53
250.01	1079.58
250.02	1079.64
250.03	1079.69
250.04	1079.74
250.05	1079.8
250.06	1079.85
250.07	1079.9
250.08	1079.96
250.09	1080.01
250.1	1080.07
250.11	1080.12
250.12	1080.17
250.13	1080.23
250.14	1080.28
250.15	1080.33
250.16	1080.39
250.17	1080.44
250.18	1080.49
250.19	1080.55
250.2	1080.6
250.21	1080.65
250.22	1080.71
250.23	1080.76
250.24	1080.82
250.25	1080.87
250.26	1080.92
250.27	1080.98
250.28	1081.03
250.29	1081.08
250.3	1081.14
250.31	1081.19
250.32	1081.24
250.33	1081.3
250.34	1081.35
250.35	1081.41
250.36	1081.46
250.37	1081.51
250.38	1081.57
250.39	1081.62
250.4	1081.67
250.41	1081.73
250.42	1081.78
250.43	1081.83
250.44	1081.89
250.45	1081.94
250.46	1081.99
250.47	1082.05
250.48	1082.1
250.49	1082.16
250.5	1082.21
250.51	1082.26
250.52	1082.32
250.53	1082.37
250.54	1082.42
250.55	1082.48
250.56	1082.53
250.57	1082.58
250.58	1082.64
250.59	1082.69
250.6	1082.74
250.61	1082.8
250.62	1082.85
250.63	1082.91
250.64	1082.96
250.65	1083.01
250.66	1083.07
250.67	1083.12
250.68	1083.17
250.69	1083.23
250.7	1083.28
250.71	1083.33
250.72	1083.39
250.73	1083.44
250.74	1083.49
250.75	1083.55
250.76	1083.6
250.77	1083.66
250.78	1083.71
250.79	1083.76
250.8	1083.82
250.81	1083.87
250.82	1083.92
250.83	1083.98
250.84	1084.03
250.85	1084.08
250.86	1084.14
250.87	1084.19
250.88	1084.25
250.89	1084.3
250.9	1084.35
250.91	1084.41
250.92	1084.46
250.93	1084.51
250.94	1084.57
250.95	1084.62
250.96	1084.67
250.97	1084.73
250.98	1084.78
250.99	1084.83
251	1084.89
251.01	1084.94
251.02	1085
251.03	1085.05
251.04	1085.1
251.05	1085.16
251.06	1085.21
251.07	1085.26
251.08	1085.32
251.09	1085.37
251.1	1085.42
251.11	1085.48
251.12	1085.53
251.13	1085.58
251.14	1085.64
251.15	1085.69
251.16	1085.75
251.17	1085.8
251.18	1085.85
251.19	1085.91
251.2	1085.96
251.21	1086.01
251.22	1086.07
251.23	1086.12
251.24	1086.17
251.25	1086.23
251.26	1086.28
251.27	1086.33
251.28	1086.39
251.29	1086.44
251.3	1086.5
251.31	1086.55
251.32	1086.6
251.33	1086.66
251.34	1086.71
251.35	1086.76
251.36	1086.82
251.37	1086.87
251.38	1086.92
251.39	1086.98
251.4	1087.03
251.41	1087.09
251.42	1087.14
251.43	1087.19
251.44	1087.25
251.45	1087.3
251.46	1087.35
251.47	1087.41
251.48	1087.46
251.49	1087.51
251.5	1087.57
251.51	1087.62
251.52	1087.67
251.53	1087.73
251.54	1087.78
251.55	1087.84
251.56	1087.89
251.57	1087.94
251.58	1088
251.59	1088.05
251.6	1088.1
251.61	1088.16
251.62	1088.21
251.63	1088.26
251.64	1088.32
251.65	1088.37
251.66	1088.42
251.67	1088.48
251.68	1088.53
251.69	1088.59
251.7	1088.64
251.71	1088.69
251.72	1088.75
251.73	1088.8
251.74	1088.85
251.75	1088.91
251.76	1088.96
251.77	1089.01
251.78	1089.07
251.79	1089.12
251.8	1089.17
251.81	1089.23
251.82	1089.28
251.83	1089.34
251.84	1089.39
251.85	1089.44
251.86	1089.5
251.87	1089.55
251.88	1089.6
251.89	1089.66
251.9	1089.71
251.91	1089.76
251.92	1089.82
251.93	1089.87
251.94	1089.93
251.95	1089.98
251.96	1090.03
251.97	1090.09
251.98	1090.14
251.99	1090.19
252	1090.25
252.01	1090.3
252.02	1090.35
252.03	1090.41
252.04	1090.46
252.05	1090.51
252.06	1090.57
252.07	1090.62
252.08	1090.68
252.09	1090.73
252.1	1090.78
252.11	1090.84
252.12	1090.89
252.13	1090.94
252.14	1091
252.15	1091.05
252.16	1091.1
252.17	1091.16
252.18	1091.21
252.19	1091.26
252.2	1091.32
252.21	1091.37
252.22	1091.43
252.23	1091.48
252.24	1091.53
252.25	1091.59
252.26	1091.64
252.27	1091.69
252.28	1091.75
252.29	1091.8
252.3	1091.85
252.31	1091.91
252.32	1091.96
252.33	1092.02
252.34	1092.07
252.35	1092.12
252.36	1092.18
252.37	1092.23
252.38	1092.28
252.39	1092.34
252.4	1092.39
252.41	1092.44
252.42	1092.5
252.43	1092.55
252.44	1092.6
252.45	1092.66
252.46	1092.71
252.47	1092.77
252.48	1092.82
252.49	1092.87
252.5	1092.93
252.51	1092.98
252.52	1093.03
252.53	1093.09
252.54	1093.14
252.55	1093.19
252.56	1093.25
252.57	1093.3
252.58	1093.35
252.59	1093.41
252.6	1093.46
252.61	1093.52
252.62	1093.57
252.63	1093.62
252.64	1093.68
252.65	1093.73
252.66	1093.78
252.67	1093.84
252.68	1093.89
252.69	1093.94
252.7	1094
252.71	1094.05
252.72	1094.1
252.73	1094.16
252.74	1094.21
252.75	1094.27
252.76	1094.32
252.77	1094.37
252.78	1094.43
252.79	1094.48
252.8	1094.53
252.81	1094.59
252.82	1094.64
252.83	1094.69
252.84	1094.75
252.85	1094.8
252.86	1094.86
252.87	1094.91
252.88	1094.96
252.89	1095.02
252.9	1095.07
252.91	1095.12
252.92	1095.18
252.93	1095.23
252.94	1095.28
252.95	1095.34
252.96	1095.39
252.97	1095.44
252.98	1095.5
252.99	1095.55
253	1095.61
253.01	1095.66
253.02	1095.71
253.03	1095.77
253.04	1095.82
253.05	1095.87
253.06	1095.93
253.07	1095.98
253.08	1096.03
253.09	1096.09
253.1	1096.14
253.11	1096.19
253.12	1096.25
253.13	1096.3
253.14	1096.36
253.15	1096.41
253.16	1096.46
253.17	1096.52
253.18	1096.57
253.19	1096.62
253.2	1096.68
253.21	1096.73
253.22	1096.78
253.23	1096.84
253.24	1096.89
253.25	1096.94
253.26	1097
253.27	1097.05
253.28	1097.11
253.29	1097.16
253.3	1097.21
253.31	1097.27
253.32	1097.32
253.33	1097.37
253.34	1097.43
253.35	1097.48
253.36	1097.53
253.37	1097.59
253.38	1097.64
253.39	1097.7
253.4	1097.75
253.41	1097.8
253.42	1097.86
253.43	1097.91
253.44	1097.96
253.45	1098.02
253.46	1098.07
253.47	1098.12
253.48	1098.18
253.49	1098.23
253.5	1098.28
253.51	1098.34
253.52	1098.39
253.53	1098.45
253.54	1098.5
253.55	1098.55
253.56	1098.61
253.57	1098.66
253.58	1098.71
253.59	1098.77
253.6	1098.82
253.61	1098.87
253.62	1098.93
253.63	1098.98
253.64	1099.03
253.65	1099.09
253.66	1099.14
253.67	1099.2
253.68	1099.25
253.69	1099.3
253.7	1099.36
253.71	1099.41
253.72	1099.46
253.73	1099.52
253.74	1099.57
253.75	1099.62
253.76	1099.68
253.77	1099.73
253.78	1099.78
253.79	1099.84
253.8	1099.89
253.81	1099.95
253.82	1100
253.83	1100.05
253.84	1100.11
253.85	1100.16
253.86	1100.21
253.87	1100.27
253.88	1100.32
253.89	1100.37
253.9	1100.43
253.91	1100.48
253.92	1100.54
253.93	1100.59
253.94	1100.64
253.95	1100.7
253.96	1100.75
253.97	1100.8
253.98	1100.86
253.99	1100.91
254	1100.96
254.01	1101.02
254.02	1101.07
254.03	1101.12
254.04	1101.18
254.05	1101.23
254.06	1101.29
254.07	1101.34
254.08	1101.39
254.09	1101.45
254.1	1101.5
254.11	1101.55
254.12	1101.61
254.13	1101.66
254.14	1101.71
254.15	1101.77
254.16	1101.82
254.17	1101.87
254.18	1101.93
254.19	1101.98
254.2	1102.04
254.21	1102.09
254.22	1102.14
254.23	1102.2
254.24	1102.25
254.25	1102.3
254.26	1102.36
254.27	1102.41
254.28	1102.46
254.29	1102.52
254.3	1102.57
254.31	1102.62
254.32	1102.68
254.33	1102.73
254.34	1102.79
254.35	1102.84
254.36	1102.89
254.37	1102.95
254.38	1103
254.39	1103.05
254.4	1103.11
254.41	1103.16
254.42	1103.21
254.43	1103.27
254.44	1103.32
254.45	1103.38
254.46	1103.43
254.47	1103.48
254.48	1103.54
254.49	1103.59
254.5	1103.64
254.51	1103.7
254.52	1103.75
254.53	1103.8
254.54	1103.86
254.55	1103.91
254.56	1103.96
254.57	1104.02
254.58	1104.07
254.59	1104.13
254.6	1104.18
254.61	1104.23
254.62	1104.29
254.63	1104.34
254.64	1104.39
254.65	1104.45
254.66	1104.5
254.67	1104.55
254.68	1104.61
254.69	1104.66
254.7	1104.71
254.71	1104.77
254.72	1104.82
254.73	1104.88
254.74	1104.93
254.75	1104.98
254.76	1105.04
254.77	1105.09
254.78	1105.14
254.79	1105.2
254.8	1105.25
254.81	1105.3
254.82	1105.36
254.83	1105.41
254.84	1105.46
254.85	1105.52
254.86	1105.57
254.87	1105.63
254.88	1105.68
254.89	1105.73
254.9	1105.79
254.91	1105.84
254.92	1105.89
254.93	1105.95
254.94	1106
254.95	1106.05
254.96	1106.11
254.97	1106.16
254.98	1106.22
254.99	1106.27
255	1106.32
255.01	1106.38
255.02	1106.43
255.03	1106.48
255.04	1106.54
255.05	1106.59
255.06	1106.64
255.07	1106.7
255.08	1106.75
255.09	1106.8
255.1	1106.86
255.11	1106.91
255.12	1106.97
255.13	1107.02
255.14	1107.07
255.15	1107.13
255.16	1107.18
255.17	1107.23
255.18	1107.29
255.19	1107.34
255.2	1107.39
255.21	1107.45
255.22	1107.5
255.23	1107.55
255.24	1107.61
255.25	1107.66
255.26	1107.72
255.27	1107.77
255.28	1107.82
255.29	1107.88
255.3	1107.93
255.31	1107.98
255.32	1108.04
255.33	1108.09
255.34	1108.14
255.35	1108.2
255.36	1108.25
255.37	1108.3
255.38	1108.36
255.39	1108.41
255.4	1108.47
255.41	1108.52
255.42	1108.57
255.43	1108.63
255.44	1108.68
255.45	1108.73
255.46	1108.79
255.47	1108.84
255.48	1108.89
255.49	1108.95
255.5	1109
255.51	1109.06
255.52	1109.11
255.53	1109.16
255.54	1109.22
255.55	1109.27
255.56	1109.32
255.57	1109.38
255.58	1109.43
255.59	1109.48
255.6	1109.54
255.61	1109.59
255.62	1109.64
255.63	1109.7
255.64	1109.75
255.65	1109.81
255.66	1109.86
255.67	1109.91
255.68	1109.97
255.69	1110.02
255.7	1110.07
255.71	1110.13
255.72	1110.18
255.73	1110.23
255.74	1110.29
255.75	1110.34
255.76	1110.39
255.77	1110.45
255.78	1110.5
255.79	1110.56
255.8	1110.61
255.81	1110.66
255.82	1110.72
255.83	1110.77
255.84	1110.82
255.85	1110.88
255.86	1110.93
255.87	1110.98
255.88	1111.04
255.89	1111.09
255.9	1111.15
255.91	1111.2
255.92	1111.25
255.93	1111.31
255.94	1111.36
255.95	1111.41
255.96	1111.47
255.97	1111.52
255.98	1111.57
255.99	1111.63
256	1111.68
256.01	1111.73
256.02	1111.79
256.03	1111.84
256.04	1111.9
256.05	1111.95
256.06	1112
256.07	1112.06
256.08	1112.11
256.09	1112.16
256.1	1112.22
256.11	1112.27
256.12	1112.32
256.13	1112.38
256.14	1112.43
256.15	1112.48
256.16	1112.54
256.17	1112.59
256.18	1112.65
256.19	1112.7
256.2	1112.75
256.21	1112.81
256.22	1112.86
256.23	1112.91
256.24	1112.97
256.25	1113.02
256.26	1113.07
256.27	1113.13
256.28	1113.18
256.29	1113.23
256.3	1113.29
256.31	1113.34
256.32	1113.4
256.33	1113.45
256.34	1113.5
256.35	1113.56
256.36	1113.61
256.37	1113.66
256.38	1113.72
256.39	1113.77
256.4	1113.82
256.41	1113.88
256.42	1113.93
256.43	1113.99
256.44	1114.04
256.45	1114.09
256.46	1114.15
256.47	1114.2
256.48	1114.25
256.49	1114.31
256.5	1114.36
256.51	1114.41
256.52	1114.47
256.53	1114.52
256.54	1114.57
256.55	1114.63
256.56	1114.68
256.57	1114.74
256.58	1114.79
256.59	1114.84
256.6	1114.9
256.61	1114.95
256.62	1115
256.63	1115.06
256.64	1115.11
256.65	1115.16
256.66	1115.22
256.67	1115.27
256.68	1115.32
256.69	1115.38
256.7	1115.43
256.71	1115.49
256.72	1115.54
256.73	1115.59
256.74	1115.65
256.75	1115.7
256.76	1115.75
256.77	1115.81
256.78	1115.86
256.79	1115.91
256.8	1115.97
256.81	1116.02
256.82	1116.07
256.83	1116.13
256.84	1116.18
256.85	1116.24
256.86	1116.29
256.87	1116.34
256.88	1116.4
256.89	1116.45
256.9	1116.5
256.91	1116.56
256.92	1116.61
256.93	1116.66
256.94	1116.72
256.95	1116.77
256.96	1116.83
256.97	1116.88
256.98	1116.93
256.99	1116.99
257	1117.04
257.01	1117.09
257.02	1117.15
257.03	1117.2
257.04	1117.25
257.05	1117.31
257.06	1117.36
257.07	1117.41
257.08	1117.47
257.09	1117.52
257.1	1117.58
257.11	1117.63
257.12	1117.68
257.13	1117.74
257.14	1117.79
257.15	1117.84
257.16	1117.9
257.17	1117.95
257.18	1118
257.19	1118.06
257.2	1118.11
257.21	1118.16
257.22	1118.22
257.23	1118.27
257.24	1118.33
257.25	1118.38
257.26	1118.43
257.27	1118.49
257.28	1118.54
257.29	1118.59
257.3	1118.65
257.31	1118.7
257.32	1118.75
257.33	1118.81
257.34	1118.86
257.35	1118.91
257.36	1118.97
257.37	1119.02
257.38	1119.08
257.39	1119.13
257.4	1119.18
257.41	1119.24
257.42	1119.29
257.43	1119.34
257.44	1119.4
257.45	1119.45
257.46	1119.5
257.47	1119.56
257.48	1119.61
257.49	1119.67
257.5	1119.72
257.51	1119.77
257.52	1119.83
257.53	1119.88
257.54	1119.93
257.55	1119.99
257.56	1120.04
257.57	1120.09
257.58	1120.15
257.59	1120.2
257.6	1120.25
257.61	1120.31
257.62	1120.36
257.63	1120.42
257.64	1120.47
257.65	1120.52
257.66	1120.58
257.67	1120.63
257.68	1120.68
257.69	1120.74
257.7	1120.79
257.71	1120.84
257.72	1120.9
257.73	1120.95
257.74	1121
257.75	1121.06
257.76	1121.11
257.77	1121.17
257.78	1121.22
257.79	1121.27
257.8	1121.33
257.81	1121.38
257.82	1121.43
257.83	1121.49
257.84	1121.54
257.85	1121.59
257.86	1121.65
257.87	1121.7
257.88	1121.75
257.89	1121.81
257.9	1121.86
257.91	1121.92
257.92	1121.97
257.93	1122.02
257.94	1122.08
257.95	1122.13
257.96	1122.18
257.97	1122.24
257.98	1122.29
257.99	1122.34
258	1122.4
258.01	1122.45
258.02	1122.51
258.03	1122.56
258.04	1122.61
258.05	1122.67
258.06	1122.72
258.07	1122.77
258.08	1122.83
258.09	1122.88
258.1	1122.93
258.11	1122.99
258.12	1123.04
258.13	1123.09
258.14	1123.15
258.15	1123.2
258.16	1123.26
258.17	1123.31
258.18	1123.36
258.19	1123.42
258.2	1123.47
258.21	1123.52
258.22	1123.58
258.23	1123.63
258.24	1123.68
258.25	1123.74
258.26	1123.79
258.27	1123.84
258.28	1123.9
258.29	1123.95
258.3	1124.01
258.31	1124.06
258.32	1124.11
258.33	1124.17
258.34	1124.22
258.35	1124.27
258.36	1124.33
258.37	1124.38
258.38	1124.43
258.39	1124.49
258.4	1124.54
258.41	1124.59
258.42	1124.65
258.43	1124.7
258.44	1124.76
258.45	1124.81
258.46	1124.86
258.47	1124.92
258.48	1124.97
258.49	1125.02
258.5	1125.08
258.51	1125.13
258.52	1125.18
258.53	1125.24
258.54	1125.29
258.55	1125.35
258.56	1125.4
258.57	1125.45
258.58	1125.51
258.59	1125.56
258.6	1125.61
258.61	1125.67
258.62	1125.72
258.63	1125.77
258.64	1125.83
258.65	1125.88
258.66	1125.93
258.67	1125.99
258.68	1126.04
258.69	1126.1
258.7	1126.15
258.71	1126.2
258.72	1126.26
258.73	1126.31
258.74	1126.36
258.75	1126.42
258.76	1126.47
258.77	1126.52
258.78	1126.58
258.79	1126.63
258.8	1126.68
258.81	1126.74
258.82	1126.79
258.83	1126.85
258.84	1126.9
258.85	1126.95
258.86	1127.01
258.87	1127.06
258.88	1127.11
258.89	1127.17
258.9	1127.22
258.91	1127.27
258.92	1127.33
258.93	1127.38
258.94	1127.43
258.95	1127.49
258.96	1127.54
258.97	1127.6
258.98	1127.65
258.99	1127.7
259	1127.76
259.01	1127.81
259.02	1127.86
259.03	1127.92
259.04	1127.97
259.05	1128.02
259.06	1128.08
259.07	1128.13
259.08	1128.19
259.09	1128.24
259.1	1128.29
259.11	1128.35
259.12	1128.4
259.13	1128.45
259.14	1128.51
259.15	1128.56
259.16	1128.61
259.17	1128.67
259.18	1128.72
259.19	1128.77
259.2	1128.83
259.21	1128.88
259.22	1128.94
259.23	1128.99
259.24	1129.04
259.25	1129.1
259.26	1129.15
259.27	1129.2
259.28	1129.26
259.29	1129.31
259.3	1129.36
259.31	1129.42
259.32	1129.47
259.33	1129.52
259.34	1129.58
259.35	1129.63
259.36	1129.69
259.37	1129.74
259.38	1129.79
259.39	1129.85
259.4	1129.9
259.41	1129.95
259.42	1130.01
259.43	1130.06
259.44	1130.11
259.45	1130.17
259.46	1130.22
259.47	1130.28
259.48	1130.33
259.49	1130.38
259.5	1130.44
259.51	1130.49
259.52	1130.54
259.53	1130.6
259.54	1130.65
259.55	1130.7
259.56	1130.76
259.57	1130.81
259.58	1130.86
259.59	1130.92
259.6	1130.97
259.61	1131.03
259.62	1131.08
259.63	1131.13
259.64	1131.19
259.65	1131.24
259.66	1131.29
259.67	1131.35
259.68	1131.4
259.69	1131.45
259.7	1131.51
259.71	1131.56
259.72	1131.61
259.73	1131.67
259.74	1131.72
259.75	1131.78
259.76	1131.83
259.77	1131.88
259.78	1131.94
259.79	1131.99
259.8	1132.04
259.81	1132.1
259.82	1132.15
259.83	1132.2
259.84	1132.26
259.85	1132.31
259.86	1132.36
259.87	1132.42
259.88	1132.47
259.89	1132.53
259.9	1132.58
259.91	1132.63
259.92	1132.69
259.93	1132.74
259.94	1132.79
259.95	1132.85
259.96	1132.9
259.97	1132.95
259.98	1133.01
259.99	1133.06
260	1133.12
260.01	1133.19
260.02	1133.26
260.03	1133.32
260.04	1133.39
260.05	1133.46
260.06	1133.52
260.07	1133.59
260.08	1133.66
260.09	1133.72
260.1	1133.79
260.11	1133.86
260.12	1133.92
260.13	1133.99
260.14	1134.06
260.15	1134.12
260.16	1134.19
260.17	1134.26
260.18	1134.32
260.19	1134.39
260.2	1134.46
260.21	1134.52
260.22	1134.59
260.23	1134.66
260.24	1134.72
260.25	1134.79
260.26	1134.86
260.27	1134.92
260.28	1134.99
260.29	1135.06
260.3	1135.12
260.31	1135.19
260.32	1135.26
260.33	1135.32
260.34	1135.39
260.35	1135.46
260.36	1135.52
260.37	1135.59
260.38	1135.66
260.39	1135.72
260.4	1135.79
260.41	1135.86
260.42	1135.92
260.43	1135.99
260.44	1136.06
260.45	1136.12
260.46	1136.19
260.47	1136.26
260.48	1136.33
260.49	1136.39
260.5	1136.46
260.51	1136.53
260.52	1136.59
260.53	1136.66
260.54	1136.73
260.55	1136.79
260.56	1136.86
260.57	1136.93
260.58	1136.99
260.59	1137.06
260.6	1137.13
260.61	1137.19
260.62	1137.26
260.63	1137.33
260.64	1137.39
260.65	1137.46
260.66	1137.53
260.67	1137.59
260.68	1137.66
260.69	1137.73
260.7	1137.79
260.71	1137.86
260.72	1137.93
260.73	1137.99
260.74	1138.06
260.75	1138.13
260.76	1138.19
260.77	1138.26
260.78	1138.33
260.79	1138.39
260.8	1138.46
260.81	1138.53
260.82	1138.59
260.83	1138.66
260.84	1138.73
260.85	1138.79
260.86	1138.86
260.87	1138.93
260.88	1138.99
260.89	1139.06
260.9	1139.13
260.91	1139.19
260.92	1139.26
260.93	1139.33
260.94	1139.4
260.95	1139.46
260.96	1139.53
260.97	1139.6
260.98	1139.66
260.99	1139.73
261	1139.8
261.01	1139.86
261.02	1139.93
261.03	1140
261.04	1140.06
261.05	1140.13
261.06	1140.2
261.07	1140.26
261.08	1140.33
261.09	1140.4
261.1	1140.46
261.11	1140.53
261.12	1140.6
261.13	1140.66
261.14	1140.73
261.15	1140.8
261.16	1140.86
261.17	1140.93
261.18	1141
261.19	1141.06
261.2	1141.13
261.21	1141.2
261.22	1141.26
261.23	1141.33
261.24	1141.4
261.25	1141.46
261.26	1141.53
261.27	1141.6
261.28	1141.66
261.29	1141.73
261.3	1141.8
261.31	1141.86
261.32	1141.93
261.33	1142
261.34	1142.06
261.35	1142.13
261.36	1142.2
261.37	1142.26
261.38	1142.33
261.39	1142.4
261.4	1142.46
261.41	1142.53
261.42	1142.6
261.43	1142.67
261.44	1142.73
261.45	1142.8
261.46	1142.87
261.47	1142.93
261.48	1143
261.49	1143.07
261.5	1143.13
261.51	1143.2
261.52	1143.27
261.53	1143.33
261.54	1143.4
261.55	1143.47
261.56	1143.53
261.57	1143.6
261.58	1143.67
261.59	1143.73
261.6	1143.8
261.61	1143.87
261.62	1143.93
261.63	1144
261.64	1144.07
261.65	1144.13
261.66	1144.2
261.67	1144.27
261.68	1144.33
261.69	1144.4
261.7	1144.47
261.71	1144.53
261.72	1144.6
261.73	1144.67
261.74	1144.73
261.75	1144.8
261.76	1144.87
261.77	1144.93
261.78	1145
261.79	1145.07
261.8	1145.13
261.81	1145.2
261.82	1145.27
261.83	1145.33
261.84	1145.4
261.85	1145.47
261.86	1145.53
261.87	1145.6
261.88	1145.67
261.89	1145.74
261.9	1145.8
261.91	1145.87
261.92	1145.94
261.93	1146
261.94	1146.07
261.95	1146.14
261.96	1146.2
261.97	1146.27
261.98	1146.34
261.99	1146.4
262	1146.47
262.01	1146.54
262.02	1146.6
262.03	1146.67
262.04	1146.74
262.05	1146.8
262.06	1146.87
262.07	1146.94
262.08	1147
262.09	1147.07
262.1	1147.14
262.11	1147.2
262.12	1147.27
262.13	1147.34
262.14	1147.4
262.15	1147.47
262.16	1147.54
262.17	1147.6
262.18	1147.67
262.19	1147.74
262.2	1147.8
262.21	1147.87
262.22	1147.94
262.23	1148
262.24	1148.07
262.25	1148.14
262.26	1148.2
262.27	1148.27
262.28	1148.34
262.29	1148.4
262.3	1148.47
262.31	1148.54
262.32	1148.6
262.33	1148.67
262.34	1148.74
262.35	1148.81
262.36	1148.87
262.37	1148.94
262.38	1149.01
262.39	1149.07
262.4	1149.14
262.41	1149.21
262.42	1149.27
262.43	1149.34
262.44	1149.41
262.45	1149.47
262.46	1149.54
262.47	1149.61
262.48	1149.67
262.49	1149.74
262.5	1149.81
262.51	1149.87
262.52	1149.94
262.53	1150.01
262.54	1150.07
262.55	1150.14
262.56	1150.21
262.57	1150.27
262.58	1150.34
262.59	1150.41
262.6	1150.47
262.61	1150.54
262.62	1150.61
262.63	1150.67
262.64	1150.74
262.65	1150.81
262.66	1150.87
262.67	1150.94
262.68	1151.01
262.69	1151.07
262.7	1151.14
262.71	1151.21
262.72	1151.27
262.73	1151.34
262.74	1151.41
262.75	1151.47
262.76	1151.54
262.77	1151.61
262.78	1151.67
262.79	1151.74
262.8	1151.81
262.81	1151.88
262.82	1151.94
262.83	1152.01
262.84	1152.08
262.85	1152.14
262.86	1152.21
262.87	1152.28
262.88	1152.34
262.89	1152.41
262.9	1152.48
262.91	1152.54
262.92	1152.61
262.93	1152.68
262.94	1152.74
262.95	1152.81
262.96	1152.88
262.97	1152.94
262.98	1153.01
262.99	1153.08
263	1153.14
263.01	1153.21
263.02	1153.28
263.03	1153.34
263.04	1153.41
263.05	1153.48
263.06	1153.54
263.07	1153.61
263.08	1153.68
263.09	1153.74
263.1	1153.81
263.11	1153.88
263.12	1153.94
263.13	1154.01
263.14	1154.08
263.15	1154.14
263.16	1154.21
263.17	1154.28
263.18	1154.34
263.19	1154.41
263.2	1154.48
263.21	1154.54
263.22	1154.61
263.23	1154.68
263.24	1154.74
263.25	1154.81
263.26	1154.88
263.27	1154.95
263.28	1155.01
263.29	1155.08
263.3	1155.15
263.31	1155.21
263.32	1155.28
263.33	1155.35
263.34	1155.41
263.35	1155.48
263.36	1155.55
263.37	1155.61
263.38	1155.68
263.39	1155.75
263.4	1155.81
263.41	1155.88
263.42	1155.95
263.43	1156.01
263.44	1156.08
263.45	1156.15
263.46	1156.21
263.47	1156.28
263.48	1156.35
263.49	1156.41
263.5	1156.48
263.51	1156.55
263.52	1156.61
263.53	1156.68
263.54	1156.75
263.55	1156.81
263.56	1156.88
263.57	1156.95
263.58	1157.01
263.59	1157.08
263.6	1157.15
263.61	1157.21
263.62	1157.28
263.63	1157.35
263.64	1157.41
263.65	1157.48
263.66	1157.55
263.67	1157.61
263.68	1157.68
263.69	1157.75
263.7	1157.81
263.71	1157.88
263.72	1157.95
263.73	1158.01
263.74	1158.08
263.75	1158.15
263.76	1158.22
263.77	1158.28
263.78	1158.35
263.79	1158.42
263.8	1158.48
263.81	1158.55
263.82	1158.62
263.83	1158.68
263.84	1158.75
263.85	1158.82
263.86	1158.88
263.87	1158.95
263.88	1159.02
263.89	1159.08
263.9	1159.15
263.91	1159.22
263.92	1159.28
263.93	1159.35
263.94	1159.42
263.95	1159.48
263.96	1159.55
263.97	1159.62
263.98	1159.68
263.99	1159.75
264	1159.82
264.01	1159.88
264.02	1159.95
264.03	1160.02
264.04	1160.08
264.05	1160.15
264.06	1160.22
264.07	1160.28
264.08	1160.35
264.09	1160.42
264.1	1160.48
264.11	1160.55
264.12	1160.62
264.13	1160.68
264.14	1160.75
264.15	1160.82
264.16	1160.88
264.17	1160.95
264.18	1161.02
264.19	1161.08
264.2	1161.15
264.21	1161.22
264.22	1161.29
264.23	1161.35
264.24	1161.42
264.25	1161.49
264.26	1161.55
264.27	1161.62
264.28	1161.69
264.29	1161.75
264.3	1161.82
264.31	1161.89
264.32	1161.95
264.33	1162.02
264.34	1162.09
264.35	1162.15
264.36	1162.22
264.37	1162.29
264.38	1162.35
264.39	1162.42
264.4	1162.49
264.41	1162.55
264.42	1162.62
264.43	1162.69
264.44	1162.75
264.45	1162.82
264.46	1162.89
264.47	1162.95
264.48	1163.02
264.49	1163.09
264.5	1163.15
264.51	1163.22
264.52	1163.29
264.53	1163.35
264.54	1163.42
264.55	1163.49
264.56	1163.55
264.57	1163.62
264.58	1163.69
264.59	1163.75
264.6	1163.82
264.61	1163.89
264.62	1163.95
264.63	1164.02
264.64	1164.09
264.65	1164.15
264.66	1164.22
264.67	1164.29
264.68	1164.36
264.69	1164.42
264.7	1164.49
264.71	1164.56
264.72	1164.62
264.73	1164.69
264.74	1164.76
264.75	1164.82
264.76	1164.89
264.77	1164.96
264.78	1165.02
264.79	1165.09
264.8	1165.16
264.81	1165.22
264.82	1165.29
264.83	1165.36
264.84	1165.42
264.85	1165.49
264.86	1165.56
264.87	1165.62
264.88	1165.69
264.89	1165.76
264.9	1165.82
264.91	1165.89
264.92	1165.96
264.93	1166.02
264.94	1166.09
264.95	1166.16
264.96	1166.22
264.97	1166.29
264.98	1166.36
264.99	1166.42
265	1166.49
265.01	1166.56
265.02	1166.62
265.03	1166.69
265.04	1166.76
265.05	1166.82
265.06	1166.89
265.07	1166.96
265.08	1167.02
265.09	1167.09
265.1	1167.16
265.11	1167.22
265.12	1167.29
265.13	1167.36
265.14	1167.43
265.15	1167.49
265.16	1167.56
265.17	1167.63
265.18	1167.69
265.19	1167.76
265.2	1167.83
265.21	1167.89
265.22	1167.96
265.23	1168.03
265.24	1168.09
265.25	1168.16
265.26	1168.23
265.27	1168.29
265.28	1168.36
265.29	1168.43
265.3	1168.49
265.31	1168.56
265.32	1168.63
265.33	1168.69
265.34	1168.76
265.35	1168.83
265.36	1168.89
265.37	1168.96
265.38	1169.03
265.39	1169.09
265.4	1169.16
265.41	1169.23
265.42	1169.29
265.43	1169.36
265.44	1169.43
265.45	1169.49
265.46	1169.56
265.47	1169.63
265.48	1169.69
265.49	1169.76
265.5	1169.83
265.51	1169.89
265.52	1169.96
265.53	1170.03
265.54	1170.09
265.55	1170.16
265.56	1170.23
265.57	1170.29
265.58	1170.36
265.59	1170.43
265.6	1170.5
265.61	1170.56
265.62	1170.63
265.63	1170.7
265.64	1170.76
265.65	1170.83
265.66	1170.9
265.67	1170.96
265.68	1171.03
265.69	1171.1
265.7	1171.16
265.71	1171.23
265.72	1171.3
265.73	1171.36
265.74	1171.43
265.75	1171.5
265.76	1171.56
265.77	1171.63
265.78	1171.7
265.79	1171.76
265.8	1171.83
265.81	1171.9
265.82	1171.96
265.83	1172.03
265.84	1172.1
265.85	1172.16
265.86	1172.23
265.87	1172.3
265.88	1172.36
265.89	1172.43
265.9	1172.5
265.91	1172.56
265.92	1172.63
265.93	1172.7
265.94	1172.76
265.95	1172.83
265.96	1172.9
265.97	1172.96
265.98	1173.03
265.99	1173.1
266	1173.16
266.01	1173.23
266.02	1173.3
266.03	1173.36
266.04	1173.43
266.05	1173.5
266.06	1173.56
266.07	1173.63
266.08	1173.7
266.09	1173.77
266.1	1173.83
266.11	1173.9
266.12	1173.97
266.13	1174.03
266.14	1174.1
266.15	1174.17
266.16	1174.23
266.17	1174.3
266.18	1174.37
266.19	1174.43
266.2	1174.5
266.21	1174.57
266.22	1174.63
266.23	1174.7
266.24	1174.77
266.25	1174.83
266.26	1174.9
266.27	1174.97
266.28	1175.03
266.29	1175.1
266.3	1175.17
266.31	1175.23
266.32	1175.3
266.33	1175.37
266.34	1175.43
266.35	1175.5
266.36	1175.57
266.37	1175.63
266.38	1175.7
266.39	1175.77
266.4	1175.83
266.41	1175.9
266.42	1175.97
266.43	1176.03
266.44	1176.1
266.45	1176.17
266.46	1176.23
266.47	1176.3
266.48	1176.37
266.49	1176.43
266.5	1176.5
266.51	1176.57
266.52	1176.63
266.53	1176.7
266.54	1176.77
266.55	1176.84
266.56	1176.9
266.57	1176.97
266.58	1177.04
266.59	1177.1
266.6	1177.17
266.61	1177.24
266.62	1177.3
266.63	1177.37
266.64	1177.44
266.65	1177.5
266.66	1177.57
266.67	1177.64
266.68	1177.7
266.69	1177.77
266.7	1177.84
266.71	1177.9
266.72	1177.97
266.73	1178.04
266.74	1178.1
266.75	1178.17
266.76	1178.24
266.77	1178.3
266.78	1178.37
266.79	1178.44
266.8	1178.5
266.81	1178.57
266.82	1178.64
266.83	1178.7
266.84	1178.77
266.85	1178.84
266.86	1178.9
266.87	1178.97
266.88	1179.04
266.89	1179.1
266.9	1179.17
266.91	1179.24
266.92	1179.3
266.93	1179.37
266.94	1179.44
266.95	1179.5
266.96	1179.57
266.97	1179.64
266.98	1179.7
266.99	1179.77
267	1179.84
267.01	1179.91
267.02	1179.97
267.03	1180.04
267.04	1180.11
267.05	1180.17
267.06	1180.24
267.07	1180.31
267.08	1180.37
267.09	1180.44
267.1	1180.51
267.11	1180.57
267.12	1180.64
267.13	1180.71
267.14	1180.77
267.15	1180.84
267.16	1180.91
267.17	1180.97
267.18	1181.04
267.19	1181.11
267.2	1181.17
267.21	1181.24
267.22	1181.31
267.23	1181.37
267.24	1181.44
267.25	1181.51
267.26	1181.57
267.27	1181.64
267.28	1181.71
267.29	1181.77
267.3	1181.84
267.31	1181.91
267.32	1181.97
267.33	1182.04
267.34	1182.11
267.35	1182.17
267.36	1182.24
267.37	1182.31
267.38	1182.37
267.39	1182.44
267.4	1182.51
267.41	1182.57
267.42	1182.64
267.43	1182.71
267.44	1182.77
267.45	1182.84
267.46	1182.91
267.47	1182.98
267.48	1183.04
267.49	1183.11
267.5	1183.18
267.51	1183.24
267.52	1183.31
267.53	1183.38
267.54	1183.44
267.55	1183.51
267.56	1183.58
267.57	1183.64
267.58	1183.71
267.59	1183.78
267.6	1183.84
267.61	1183.91
267.62	1183.98
267.63	1184.04
267.64	1184.11
267.65	1184.18
267.66	1184.24
267.67	1184.31
267.68	1184.38
267.69	1184.44
267.7	1184.51
267.71	1184.58
267.72	1184.64
267.73	1184.71
267.74	1184.78
267.75	1184.84
267.76	1184.91
267.77	1184.98
267.78	1185.04
267.79	1185.11
267.8	1185.18
267.81	1185.24
267.82	1185.31
267.83	1185.38
267.84	1185.44
267.85	1185.51
267.86	1185.58
267.87	1185.64
267.88	1185.71
267.89	1185.78
267.9	1185.84
267.91	1185.91
267.92	1185.98
267.93	1186.05
267.94	1186.11
267.95	1186.18
267.96	1186.25
267.97	1186.31
267.98	1186.38
267.99	1186.45
268	1186.51
268.01	1186.58
268.02	1186.65
268.03	1186.71
268.04	1186.78
268.05	1186.85
268.06	1186.91
268.07	1186.98
268.08	1187.05
268.09	1187.11
268.1	1187.18
268.11	1187.25
268.12	1187.31
268.13	1187.38
268.14	1187.45
268.15	1187.51
268.16	1187.58
268.17	1187.65
268.18	1187.71
268.19	1187.78
268.2	1187.85
268.21	1187.91
268.22	1187.98
268.23	1188.05
268.24	1188.11
268.25	1188.18
268.26	1188.25
268.27	1188.31
268.28	1188.38
268.29	1188.45
268.3	1188.51
268.31	1188.58
268.32	1188.65
268.33	1188.71
268.34	1188.78
268.35	1188.85
268.36	1188.91
268.37	1188.98
268.38	1189.05
268.39	1189.11
268.4	1189.18
268.41	1189.25
268.42	1189.32
268.43	1189.38
268.44	1189.45
268.45	1189.52
268.46	1189.58
268.47	1189.65
268.48	1189.72
268.49	1189.78
268.5	1189.85
268.51	1189.92
268.52	1189.98
268.53	1190.05
268.54	1190.12
268.55	1190.18
268.56	1190.25
268.57	1190.32
268.58	1190.38
268.59	1190.45
268.6	1190.52
268.61	1190.58
268.62	1190.65
268.63	1190.72
268.64	1190.78
268.65	1190.85
268.66	1190.92
268.67	1190.98
268.68	1191.05
268.69	1191.12
268.7	1191.18
268.71	1191.25
268.72	1191.32
268.73	1191.38
268.74	1191.45
268.75	1191.52
268.76	1191.58
268.77	1191.65
268.78	1191.72
268.79	1191.78
268.8	1191.85
268.81	1191.92
268.82	1191.98
268.83	1192.05
268.84	1192.12
268.85	1192.18
268.86	1192.25
268.87	1192.32
268.88	1192.39
268.89	1192.45
268.9	1192.52
268.91	1192.59
268.92	1192.65
268.93	1192.72
268.94	1192.79
268.95	1192.85
268.96	1192.92
268.97	1192.99
268.98	1193.05
268.99	1193.12
269	1193.19
269.01	1193.25
269.02	1193.32
269.03	1193.39
269.04	1193.45
269.05	1193.52
269.06	1193.59
269.07	1193.65
269.08	1193.72
269.09	1193.79
269.1	1193.85
269.11	1193.92
269.12	1193.99
269.13	1194.05
269.14	1194.12
269.15	1194.19
269.16	1194.25
269.17	1194.32
269.18	1194.39
269.19	1194.45
269.2	1194.52
269.21	1194.59
269.22	1194.65
269.23	1194.72
269.24	1194.79
269.25	1194.85
269.26	1194.92
269.27	1194.99
269.28	1195.05
269.29	1195.12
269.3	1195.19
269.31	1195.25
269.32	1195.32
269.33	1195.39
269.34	1195.46
269.35	1195.52
269.36	1195.59
269.37	1195.66
269.38	1195.72
269.39	1195.79
269.4	1195.86
269.41	1195.92
269.42	1195.99
269.43	1196.06
269.44	1196.12
269.45	1196.19
269.46	1196.26
269.47	1196.32
269.48	1196.39
269.49	1196.46
269.5	1196.52
269.51	1196.59
269.52	1196.66
269.53	1196.72
269.54	1196.79
269.55	1196.86
269.56	1196.92
269.57	1196.99
269.58	1197.06
269.59	1197.12
269.6	1197.19
269.61	1197.26
269.62	1197.32
269.63	1197.39
269.64	1197.46
269.65	1197.52
269.66	1197.59
269.67	1197.66
269.68	1197.72
269.69	1197.79
269.7	1197.86
269.71	1197.92
269.72	1197.99
269.73	1198.06
269.74	1198.12
269.75	1198.19
269.76	1198.26
269.77	1198.32
269.78	1198.39
269.79	1198.46
269.8	1198.53
269.81	1198.59
269.82	1198.66
269.83	1198.73
269.84	1198.79
269.85	1198.86
269.86	1198.93
269.87	1198.99
269.88	1199.06
269.89	1199.13
269.9	1199.19
269.91	1199.26
269.92	1199.33
269.93	1199.39
269.94	1199.46
269.95	1199.53
269.96	1199.59
269.97	1199.66
269.98	1199.73
269.99	1199.79
270	1199.87
270.01	1199.95
270.02	1200.03
270.03	1200.11
270.04	1200.19
270.05	1200.27
270.06	1200.35
270.07	1200.43
270.08	1200.51
270.09	1200.59
270.1	1200.68
270.11	1200.76
270.12	1200.84
270.13	1200.92
270.14	1201
270.15	1201.08
270.16	1201.16
270.17	1201.24
270.18	1201.32
270.19	1201.4
270.2	1201.48
270.21	1201.57
270.22	1201.65
270.23	1201.73
270.24	1201.81
270.25	1201.89
270.26	1201.97
270.27	1202.05
270.28	1202.13
270.29	1202.21
270.3	1202.29
270.31	1202.37
270.32	1202.45
270.33	1202.54
270.34	1202.62
270.35	1202.7
270.36	1202.78
270.37	1202.86
270.38	1202.94
270.39	1203.02
270.4	1203.1
270.41	1203.18
270.42	1203.26
270.43	1203.34
270.44	1203.42
270.45	1203.51
270.46	1203.59
270.47	1203.67
270.48	1203.75
270.49	1203.83
270.5	1203.91
270.51	1203.99
270.52	1204.07
270.53	1204.15
270.54	1204.23
270.55	1204.31
270.56	1204.4
270.57	1204.48
270.58	1204.56
270.59	1204.64
270.6	1204.72
270.61	1204.8
270.62	1204.88
270.63	1204.96
270.64	1205.04
270.65	1205.12
270.66	1205.2
270.67	1205.28
270.68	1205.37
270.69	1205.45
270.7	1205.53
270.71	1205.61
270.72	1205.69
270.73	1205.77
270.74	1205.85
270.75	1205.93
270.76	1206.01
270.77	1206.09
270.78	1206.17
270.79	1206.26
270.8	1206.34
270.81	1206.42
270.82	1206.5
270.83	1206.58
270.84	1206.66
270.85	1206.74
270.86	1206.82
270.87	1206.9
270.88	1206.98
270.89	1207.06
270.9	1207.14
270.91	1207.23
270.92	1207.31
270.93	1207.39
270.94	1207.47
270.95	1207.55
270.96	1207.63
270.97	1207.71
270.98	1207.79
270.99	1207.87
271	1207.95
271.01	1208.03
271.02	1208.12
271.03	1208.2
271.04	1208.28
271.05	1208.36
271.06	1208.44
271.07	1208.52
271.08	1208.6
271.09	1208.68
271.1	1208.76
271.11	1208.84
271.12	1208.92
271.13	1209
271.14	1209.09
271.15	1209.17
271.16	1209.25
271.17	1209.33
271.18	1209.41
271.19	1209.49
271.2	1209.57
271.21	1209.65
271.22	1209.73
271.23	1209.81
271.24	1209.89
271.25	1209.98
271.26	1210.06
271.27	1210.14
271.28	1210.22
271.29	1210.3
271.3	1210.38
271.31	1210.46
271.32	1210.54
271.33	1210.62
271.34	1210.7
271.35	1210.78
271.36	1210.86
271.37	1210.95
271.38	1211.03
271.39	1211.11
271.4	1211.19
271.41	1211.27
271.42	1211.35
271.43	1211.43
271.44	1211.51
271.45	1211.59
271.46	1211.67
271.47	1211.75
271.48	1211.83
271.49	1211.92
271.5	1212
271.51	1212.08
271.52	1212.16
271.53	1212.24
271.54	1212.32
271.55	1212.4
271.56	1212.48
271.57	1212.56
271.58	1212.64
271.59	1212.72
271.6	1212.81
271.61	1212.89
271.62	1212.97
271.63	1213.05
271.64	1213.13
271.65	1213.21
271.66	1213.29
271.67	1213.37
271.68	1213.45
271.69	1213.53
271.7	1213.61
271.71	1213.69
271.72	1213.78
271.73	1213.86
271.74	1213.94
271.75	1214.02
271.76	1214.1
271.77	1214.18
271.78	1214.26
271.79	1214.34
271.8	1214.42
271.81	1214.5
271.82	1214.58
271.83	1214.67
271.84	1214.75
271.85	1214.83
271.86	1214.91
271.87	1214.99
271.88	1215.07
271.89	1215.15
271.9	1215.23
271.91	1215.31
271.92	1215.39
271.93	1215.47
271.94	1215.55
271.95	1215.64
271.96	1215.72
271.97	1215.8
271.98	1215.88
271.99	1215.96
272	1216.04
272.01	1216.12
272.02	1216.2
272.03	1216.28
272.04	1216.36
272.05	1216.44
272.06	1216.53
272.07	1216.61
272.08	1216.69
272.09	1216.77
272.1	1216.85
272.11	1216.93
272.12	1217.01
272.13	1217.09
272.14	1217.17
272.15	1217.25
272.16	1217.33
272.17	1217.41
272.18	1217.5
272.19	1217.58
272.2	1217.66
272.21	1217.74
272.22	1217.82
272.23	1217.9
272.24	1217.98
272.25	1218.06
272.26	1218.14
272.27	1218.22
272.28	1218.3
272.29	1218.39
272.3	1218.47
272.31	1218.55
272.32	1218.63
272.33	1218.71
272.34	1218.79
272.35	1218.87
272.36	1218.95
272.37	1219.03
272.38	1219.11
272.39	1219.19
272.4	1219.27
272.41	1219.36
272.42	1219.44
272.43	1219.52
272.44	1219.6
272.45	1219.68
272.46	1219.76
272.47	1219.84
272.48	1219.92
272.49	1220
272.5	1220.08
272.51	1220.16
272.52	1220.24
272.53	1220.33
272.54	1220.41
272.55	1220.49
272.56	1220.57
272.57	1220.65
272.58	1220.73
272.59	1220.81
272.6	1220.89
272.61	1220.97
272.62	1221.05
272.63	1221.13
272.64	1221.22
272.65	1221.3
272.66	1221.38
272.67	1221.46
272.68	1221.54
272.69	1221.62
272.7	1221.7
272.71	1221.78
272.72	1221.86
272.73	1221.94
272.74	1222.02
272.75	1222.1
272.76	1222.19
272.77	1222.27
272.78	1222.35
272.79	1222.43
272.8	1222.51
272.81	1222.59
272.82	1222.67
272.83	1222.75
272.84	1222.83
272.85	1222.91
272.86	1222.99
272.87	1223.08
272.88	1223.16
272.89	1223.24
272.9	1223.32
272.91	1223.4
272.92	1223.48
272.93	1223.56
272.94	1223.64
272.95	1223.72
272.96	1223.8
272.97	1223.88
272.98	1223.96
272.99	1224.05
273	1224.13
273.01	1224.21
273.02	1224.29
273.03	1224.37
273.04	1224.45
273.05	1224.53
273.06	1224.61
273.07	1224.69
273.08	1224.77
273.09	1224.85
273.1	1224.94
273.11	1225.02
273.12	1225.1
273.13	1225.18
273.14	1225.26
273.15	1225.34
273.16	1225.42
273.17	1225.5
273.18	1225.58
273.19	1225.66
273.2	1225.74
273.21	1225.82
273.22	1225.91
273.23	1225.99
273.24	1226.07
273.25	1226.15
273.26	1226.23
273.27	1226.31
273.28	1226.39
273.29	1226.47
273.3	1226.55
273.31	1226.63
273.32	1226.71
273.33	1226.8
273.34	1226.88
273.35	1226.96
273.36	1227.04
273.37	1227.12
273.38	1227.2
273.39	1227.28
273.4	1227.36
273.41	1227.44
273.42	1227.52
273.43	1227.6
273.44	1227.68
273.45	1227.77
273.46	1227.85
273.47	1227.93
273.48	1228.01
273.49	1228.09
273.5	1228.17
273.51	1228.25
273.52	1228.33
273.53	1228.41
273.54	1228.49
273.55	1228.57
273.56	1228.65
273.57	1228.74
273.58	1228.82
273.59	1228.9
273.6	1228.98
273.61	1229.06
273.62	1229.14
273.63	1229.22
273.64	1229.3
273.65	1229.38
273.66	1229.46
273.67	1229.54
273.68	1229.63
273.69	1229.71
273.7	1229.79
273.71	1229.87
273.72	1229.95
273.73	1230.03
273.74	1230.11
273.75	1230.19
273.76	1230.27
273.77	1230.35
273.78	1230.43
273.79	1230.51
273.8	1230.6
273.81	1230.68
273.82	1230.76
273.83	1230.84
273.84	1230.92
273.85	1231
273.86	1231.08
273.87	1231.16
273.88	1231.24
273.89	1231.32
273.9	1231.4
273.91	1231.49
273.92	1231.57
273.93	1231.65
273.94	1231.73
273.95	1231.81
273.96	1231.89
273.97	1231.97
273.98	1232.05
273.99	1232.13
274	1232.21
274.01	1232.29
274.02	1232.37
274.03	1232.46
274.04	1232.54
274.05	1232.62
274.06	1232.7
274.07	1232.78
274.08	1232.86
274.09	1232.94
274.1	1233.02
274.11	1233.1
274.12	1233.18
274.13	1233.26
274.14	1233.35
274.15	1233.43
274.16	1233.51
274.17	1233.59
274.18	1233.67
274.19	1233.75
274.2	1233.83
274.21	1233.91
274.22	1233.99
274.23	1234.07
274.24	1234.15
274.25	1234.23
274.26	1234.32
274.27	1234.4
274.28	1234.48
274.29	1234.56
274.3	1234.64
274.31	1234.72
274.32	1234.8
274.33	1234.88
274.34	1234.96
274.35	1235.04
274.36	1235.12
274.37	1235.21
274.38	1235.29
274.39	1235.37
274.4	1235.45
274.41	1235.53
274.42	1235.61
274.43	1235.69
274.44	1235.77
274.45	1235.85
274.46	1235.93
274.47	1236.01
274.48	1236.09
274.49	1236.18
274.5	1236.26
274.51	1236.34
274.52	1236.42
274.53	1236.5
274.54	1236.58
274.55	1236.66
274.56	1236.74
274.57	1236.82
274.58	1236.9
274.59	1236.98
274.6	1237.06
274.61	1237.15
274.62	1237.23
274.63	1237.31
274.64	1237.39
274.65	1237.47
274.66	1237.55
274.67	1237.63
274.68	1237.71
274.69	1237.79
274.7	1237.87
274.71	1237.95
274.72	1238.04
274.73	1238.12
274.74	1238.2
274.75	1238.28
274.76	1238.36
274.77	1238.44
274.78	1238.52
274.79	1238.6
274.8	1238.68
274.81	1238.76
274.82	1238.84
274.83	1238.92
274.84	1239.01
274.85	1239.09
274.86	1239.17
274.87	1239.25
274.88	1239.33
274.89	1239.41
274.9	1239.49
274.91	1239.57
274.92	1239.65
274.93	1239.73
274.94	1239.81
274.95	1239.9
274.96	1239.98
274.97	1240.06
274.98	1240.14
274.99	1240.22
275	1240.3
275.01	1240.38
275.02	1240.46
275.03	1240.54
275.04	1240.62
275.05	1240.7
275.06	1240.78
275.07	1240.87
275.08	1240.95
275.09	1241.03
275.1	1241.11
275.11	1241.19
275.12	1241.27
275.13	1241.35
275.14	1241.43
275.15	1241.51
275.16	1241.59
275.17	1241.67
275.18	1241.76
275.19	1241.84
275.2	1241.92
275.21	1242
275.22	1242.08
275.23	1242.16
275.24	1242.24
275.25	1242.32
275.26	1242.4
275.27	1242.48
275.28	1242.56
275.29	1242.64
275.3	1242.73
275.31	1242.81
275.32	1242.89
275.33	1242.97
275.34	1243.05
275.35	1243.13
275.36	1243.21
275.37	1243.29
275.38	1243.37
275.39	1243.45
275.4	1243.53
275.41	1243.62
275.42	1243.7
275.43	1243.78
275.44	1243.86
275.45	1243.94
275.46	1244.02
275.47	1244.1
275.48	1244.18
275.49	1244.26
275.5	1244.34
275.51	1244.42
275.52	1244.5
275.53	1244.59
275.54	1244.67
275.55	1244.75
275.56	1244.83
275.57	1244.91
275.58	1244.99
275.59	1245.07
275.6	1245.15
275.61	1245.23
275.62	1245.31
275.63	1245.39
275.64	1245.47
275.65	1245.56
275.66	1245.64
275.67	1245.72
275.68	1245.8
275.69	1245.88
275.7	1245.96
275.71	1246.04
275.72	1246.12
275.73	1246.2
275.74	1246.28
275.75	1246.36
275.76	1246.45
275.77	1246.53
275.78	1246.61
275.79	1246.69
275.8	1246.77
275.81	1246.85
275.82	1246.93
275.83	1247.01
275.84	1247.09
275.85	1247.17
275.86	1247.25
275.87	1247.33
275.88	1247.42
275.89	1247.5
275.9	1247.58
275.91	1247.66
275.92	1247.74
275.93	1247.82
275.94	1247.9
275.95	1247.98
275.96	1248.06
275.97	1248.14
275.98	1248.22
275.99	1248.31
276	1248.39
276.01	1248.47
276.02	1248.55
276.03	1248.63
276.04	1248.71
276.05	1248.79
276.06	1248.87
276.07	1248.95
276.08	1249.03
276.09	1249.11
276.1	1249.19
276.11	1249.28
276.12	1249.36
276.13	1249.44
276.14	1249.52
276.15	1249.6
276.16	1249.68
276.17	1249.76
276.18	1249.84
276.19	1249.92
276.2	1250
276.21	1250.08
276.22	1250.17
276.23	1250.25
276.24	1250.33
276.25	1250.41
276.26	1250.49
276.27	1250.57
276.28	1250.65
276.29	1250.73
276.3	1250.81
276.31	1250.89
276.32	1250.97
276.33	1251.05
276.34	1251.14
276.35	1251.22
276.36	1251.3
276.37	1251.38
276.38	1251.46
276.39	1251.54
276.4	1251.62
276.41	1251.7
276.42	1251.78
276.43	1251.86
276.44	1251.94
276.45	1252.03
276.46	1252.11
276.47	1252.19
276.48	1252.27
276.49	1252.35
276.5	1252.43
276.51	1252.51
276.52	1252.59
276.53	1252.67
276.54	1252.75
276.55	1252.83
276.56	1252.91
276.57	1253
276.58	1253.08
276.59	1253.16
276.6	1253.24
276.61	1253.32
276.62	1253.4
276.63	1253.48
276.64	1253.56
276.65	1253.64
276.66	1253.72
276.67	1253.8
276.68	1253.88
276.69	1253.97
276.7	1254.05
276.71	1254.13
276.72	1254.21
276.73	1254.29
276.74	1254.37
276.75	1254.45
276.76	1254.53
276.77	1254.61
276.78	1254.69
276.79	1254.77
276.8	1254.86
276.81	1254.94
276.82	1255.02
276.83	1255.1
276.84	1255.18
276.85	1255.26
276.86	1255.34
276.87	1255.42
276.88	1255.5
276.89	1255.58
276.9	1255.66
276.91	1255.74
276.92	1255.83
276.93	1255.91
276.94	1255.99
276.95	1256.07
276.96	1256.15
276.97	1256.23
276.98	1256.31
276.99	1256.39
277	1256.47
277.01	1256.55
277.02	1256.63
277.03	1256.72
277.04	1256.8
277.05	1256.88
277.06	1256.96
277.07	1257.04
277.08	1257.12
277.09	1257.2
277.1	1257.28
277.11	1257.36
277.12	1257.44
277.13	1257.52
277.14	1257.6
277.15	1257.69
277.16	1257.77
277.17	1257.85
277.18	1257.93
277.19	1258.01
277.2	1258.09
277.21	1258.17
277.22	1258.25
277.23	1258.33
277.24	1258.41
277.25	1258.49
277.26	1258.58
277.27	1258.66
277.28	1258.74
277.29	1258.82
277.3	1258.9
277.31	1258.98
277.32	1259.06
277.33	1259.14
277.34	1259.22
277.35	1259.3
277.36	1259.38
277.37	1259.46
277.38	1259.55
277.39	1259.63
277.4	1259.71
277.41	1259.79
277.42	1259.87
277.43	1259.95
277.44	1260.03
277.45	1260.11
277.46	1260.19
277.47	1260.27
277.48	1260.35
277.49	1260.43
277.5	1260.52
277.51	1260.6
277.52	1260.68
277.53	1260.76
277.54	1260.84
277.55	1260.92
277.56	1261
277.57	1261.08
277.58	1261.16
277.59	1261.24
277.6	1261.32
277.61	1261.41
277.62	1261.49
277.63	1261.57
277.64	1261.65
277.65	1261.73
277.66	1261.81
277.67	1261.89
277.68	1261.97
277.69	1262.05
277.7	1262.13
277.71	1262.21
277.72	1262.29
277.73	1262.38
277.74	1262.46
277.75	1262.54
277.76	1262.62
277.77	1262.7
277.78	1262.78
277.79	1262.86
277.8	1262.94
277.81	1263.02
277.82	1263.1
277.83	1263.18
277.84	1263.27
277.85	1263.35
277.86	1263.43
277.87	1263.51
277.88	1263.59
277.89	1263.67
277.9	1263.75
277.91	1263.83
277.92	1263.91
277.93	1263.99
277.94	1264.07
277.95	1264.15
277.96	1264.24
277.97	1264.32
277.98	1264.4
277.99	1264.48
278	1264.56
278.01	1264.64
278.02	1264.72
278.03	1264.8
278.04	1264.88
278.05	1264.96
278.06	1265.04
278.07	1265.13
278.08	1265.21
278.09	1265.29
278.1	1265.37
278.11	1265.45
278.12	1265.53
278.13	1265.61
278.14	1265.69
278.15	1265.77
278.16	1265.85
278.17	1265.93
278.18	1266.01
278.19	1266.1
278.2	1266.18
278.21	1266.26
278.22	1266.34
278.23	1266.42
278.24	1266.5
278.25	1266.58
278.26	1266.66
278.27	1266.74
278.28	1266.82
278.29	1266.9
278.3	1266.99
278.31	1267.07
278.32	1267.15
278.33	1267.23
278.34	1267.31
278.35	1267.39
278.36	1267.47
278.37	1267.55
278.38	1267.63
278.39	1267.71
278.4	1267.79
278.41	1267.87
278.42	1267.96
278.43	1268.04
278.44	1268.12
278.45	1268.2
278.46	1268.28
278.47	1268.36
278.48	1268.44
278.49	1268.52
278.5	1268.6
278.51	1268.68
278.52	1268.76
278.53	1268.84
278.54	1268.93
278.55	1269.01
278.56	1269.09
278.57	1269.17
278.58	1269.25
278.59	1269.33
278.6	1269.41
278.61	1269.49
278.62	1269.57
278.63	1269.65
278.64	1269.73
278.65	1269.82
278.66	1269.9
278.67	1269.98
278.68	1270.06
278.69	1270.14
278.7	1270.22
278.71	1270.3
278.72	1270.38
278.73	1270.46
278.74	1270.54
278.75	1270.62
278.76	1270.7
278.77	1270.79
278.78	1270.87
278.79	1270.95
278.8	1271.03
278.81	1271.11
278.82	1271.19
278.83	1271.27
278.84	1271.35
278.85	1271.43
278.86	1271.51
278.87	1271.59
278.88	1271.68
278.89	1271.76
278.9	1271.84
278.91	1271.92
278.92	1272
278.93	1272.08
278.94	1272.16
278.95	1272.24
278.96	1272.32
278.97	1272.4
278.98	1272.48
278.99	1272.56
279	1272.65
279.01	1272.73
279.02	1272.81
279.03	1272.89
279.04	1272.97
279.05	1273.05
279.06	1273.13
279.07	1273.21
279.08	1273.29
279.09	1273.37
279.1	1273.45
279.11	1273.54
279.12	1273.62
279.13	1273.7
279.14	1273.78
279.15	1273.86
279.16	1273.94
279.17	1274.02
279.18	1274.1
279.19	1274.18
279.2	1274.26
279.21	1274.34
279.22	1274.42
279.23	1274.51
279.24	1274.59
279.25	1274.67
279.26	1274.75
279.27	1274.83
279.28	1274.91
279.29	1274.99
279.3	1275.07
279.31	1275.15
279.32	1275.23
279.33	1275.31
279.34	1275.4
279.35	1275.48
279.36	1275.56
279.37	1275.64
279.38	1275.72
279.39	1275.8
279.4	1275.88
279.41	1275.96
279.42	1276.04
279.43	1276.12
279.44	1276.2
279.45	1276.28
279.46	1276.37
279.47	1276.45
279.48	1276.53
279.49	1276.61
279.5	1276.69
279.51	1276.77
279.52	1276.85
279.53	1276.93
279.54	1277.01
279.55	1277.09
279.56	1277.17
279.57	1277.25
279.58	1277.34
279.59	1277.42
279.6	1277.5
279.61	1277.58
279.62	1277.66
279.63	1277.74
279.64	1277.82
279.65	1277.9
279.66	1277.98
279.67	1278.06
279.68	1278.14
279.69	1278.23
279.7	1278.31
279.71	1278.39
279.72	1278.47
279.73	1278.55
279.74	1278.63
279.75	1278.71
279.76	1278.79
279.77	1278.87
279.78	1278.95
279.79	1279.03
279.8	1279.11
279.81	1279.2
279.82	1279.28
279.83	1279.36
279.84	1279.44
279.85	1279.52
279.86	1279.6
279.87	1279.68
279.88	1279.76
279.89	1279.84
279.9	1279.92
279.91	1280
279.92	1280.09
279.93	1280.17
279.94	1280.25
279.95	1280.33
279.96	1280.41
279.97	1280.49
279.98	1280.57
279.99	1280.65
280	1280.73
280.01	1280.82
280.02	1280.9
280.03	1280.99
280.04	1281.07
280.05	1281.16
280.06	1281.24
280.07	1281.32
280.08	1281.41
280.09	1281.49
280.1	1281.58
280.11	1281.66
280.12	1281.75
280.13	1281.83
280.14	1281.91
280.15	1282
280.16	1282.08
280.17	1282.17
280.18	1282.25
280.19	1282.34
280.2	1282.42
280.21	1282.5
280.22	1282.59
280.23	1282.67
280.24	1282.76
280.25	1282.84
280.26	1282.93
280.27	1283.01
280.28	1283.09
280.29	1283.18
280.3	1283.26
280.31	1283.35
280.32	1283.43
280.33	1283.51
280.34	1283.6
280.35	1283.68
280.36	1283.77
280.37	1283.85
280.38	1283.94
280.39	1284.02
280.4	1284.1
280.41	1284.19
280.42	1284.27
280.43	1284.36
280.44	1284.44
280.45	1284.53
280.46	1284.61
280.47	1284.69
280.48	1284.78
280.49	1284.86
280.5	1284.95
280.51	1285.03
280.52	1285.12
280.53	1285.2
280.54	1285.28
280.55	1285.37
280.56	1285.45
280.57	1285.54
280.58	1285.62
280.59	1285.71
280.6	1285.79
280.61	1285.87
280.62	1285.96
280.63	1286.04
280.64	1286.13
280.65	1286.21
280.66	1286.3
280.67	1286.38
280.68	1286.46
280.69	1286.55
280.7	1286.63
280.71	1286.72
280.72	1286.8
280.73	1286.89
280.74	1286.97
280.75	1287.05
280.76	1287.14
280.77	1287.22
280.78	1287.31
280.79	1287.39
280.8	1287.48
280.81	1287.56
280.82	1287.64
280.83	1287.73
280.84	1287.81
280.85	1287.9
280.86	1287.98
280.87	1288.07
280.88	1288.15
280.89	1288.23
280.9	1288.32
280.91	1288.4
280.92	1288.49
280.93	1288.57
280.94	1288.66
280.95	1288.74
280.96	1288.82
280.97	1288.91
280.98	1288.99
280.99	1289.08
281	1289.16
281.01	1289.25
281.02	1289.33
281.03	1289.41
281.04	1289.5
281.05	1289.58
281.06	1289.67
281.07	1289.75
281.08	1289.84
281.09	1289.92
281.1	1290
281.11	1290.09
281.12	1290.17
281.13	1290.26
281.14	1290.34
281.15	1290.43
281.16	1290.51
281.17	1290.59
281.18	1290.68
281.19	1290.76
281.2	1290.85
281.21	1290.93
281.22	1291.02
281.23	1291.1
281.24	1291.18
281.25	1291.27
281.26	1291.35
281.27	1291.44
281.28	1291.52
281.29	1291.61
281.3	1291.69
281.31	1291.77
281.32	1291.86
281.33	1291.94
281.34	1292.03
281.35	1292.11
281.36	1292.2
281.37	1292.28
281.38	1292.36
281.39	1292.45
281.4	1292.53
281.41	1292.62
281.42	1292.7
281.43	1292.79
281.44	1292.87
281.45	1292.95
281.46	1293.04
281.47	1293.12
281.48	1293.21
281.49	1293.29
281.5	1293.38
281.51	1293.46
281.52	1293.54
281.53	1293.63
281.54	1293.71
281.55	1293.8
281.56	1293.88
281.57	1293.97
281.58	1294.05
281.59	1294.13
281.6	1294.22
281.61	1294.3
281.62	1294.39
281.63	1294.47
281.64	1294.56
281.65	1294.64
281.66	1294.72
281.67	1294.81
281.68	1294.89
281.69	1294.98
281.7	1295.06
281.71	1295.14
281.72	1295.23
281.73	1295.31
281.74	1295.4
281.75	1295.48
281.76	1295.57
281.77	1295.65
281.78	1295.73
281.79	1295.82
281.8	1295.9
281.81	1295.99
281.82	1296.07
281.83	1296.16
281.84	1296.24
281.85	1296.32
281.86	1296.41
281.87	1296.49
281.88	1296.58
281.89	1296.66
281.9	1296.75
281.91	1296.83
281.92	1296.91
281.93	1297
281.94	1297.08
281.95	1297.17
281.96	1297.25
281.97	1297.34
281.98	1297.42
281.99	1297.5
282	1297.59
282.01	1297.67
282.02	1297.76
282.03	1297.84
282.04	1297.93
282.05	1298.01
282.06	1298.09
282.07	1298.18
282.08	1298.26
282.09	1298.35
282.1	1298.43
282.11	1298.52
282.12	1298.6
282.13	1298.68
282.14	1298.77
282.15	1298.85
282.16	1298.94
282.17	1299.02
282.18	1299.11
282.19	1299.19
282.2	1299.27
282.21	1299.36
282.22	1299.44
282.23	1299.53
282.24	1299.61
282.25	1299.7
282.26	1299.78
282.27	1299.86
282.28	1299.95
282.29	1300.03
282.3	1300.12
282.31	1300.2
282.32	1300.29
282.33	1300.37
282.34	1300.45
282.35	1300.54
282.36	1300.62
282.37	1300.71
282.38	1300.79
282.39	1300.88
282.4	1300.96
282.41	1301.04
282.42	1301.13
282.43	1301.21
282.44	1301.3
282.45	1301.38
282.46	1301.47
282.47	1301.55
282.48	1301.63
282.49	1301.72
282.5	1301.8
282.51	1301.89
282.52	1301.97
282.53	1302.06
282.54	1302.14
282.55	1302.22
282.56	1302.31
282.57	1302.39
282.58	1302.48
282.59	1302.56
282.6	1302.65
282.61	1302.73
282.62	1302.81
282.63	1302.9
282.64	1302.98
282.65	1303.07
282.66	1303.15
282.67	1303.24
282.68	1303.32
282.69	1303.4
282.7	1303.49
282.71	1303.57
282.72	1303.66
282.73	1303.74
282.74	1303.83
282.75	1303.91
282.76	1303.99
282.77	1304.08
282.78	1304.16
282.79	1304.25
282.8	1304.33
282.81	1304.42
282.82	1304.5
282.83	1304.58
282.84	1304.67
282.85	1304.75
282.86	1304.84
282.87	1304.92
282.88	1305.01
282.89	1305.09
282.9	1305.17
282.91	1305.26
282.92	1305.34
282.93	1305.43
282.94	1305.51
282.95	1305.6
282.96	1305.68
282.97	1305.76
282.98	1305.85
282.99	1305.93
283	1306.02
283.01	1306.1
283.02	1306.19
283.03	1306.27
283.04	1306.35
283.05	1306.44
283.06	1306.52
283.07	1306.61
283.08	1306.69
283.09	1306.77
283.1	1306.86
283.11	1306.94
283.12	1307.03
283.13	1307.11
283.14	1307.2
283.15	1307.28
283.16	1307.36
283.17	1307.45
283.18	1307.53
283.19	1307.62
283.2	1307.7
283.21	1307.79
283.22	1307.87
283.23	1307.95
283.24	1308.04
283.25	1308.12
283.26	1308.21
283.27	1308.29
283.28	1308.38
283.29	1308.46
283.3	1308.54
283.31	1308.63
283.32	1308.71
283.33	1308.8
283.34	1308.88
283.35	1308.97
283.36	1309.05
283.37	1309.13
283.38	1309.22
283.39	1309.3
283.4	1309.39
283.41	1309.47
283.42	1309.56
283.43	1309.64
283.44	1309.72
283.45	1309.81
283.46	1309.89
283.47	1309.98
283.48	1310.06
283.49	1310.15
283.5	1310.23
283.51	1310.31
283.52	1310.4
283.53	1310.48
283.54	1310.57
283.55	1310.65
283.56	1310.74
283.57	1310.82
283.58	1310.9
283.59	1310.99
283.6	1311.07
283.61	1311.16
283.62	1311.24
283.63	1311.33
283.64	1311.41
283.65	1311.49
283.66	1311.58
283.67	1311.66
283.68	1311.75
283.69	1311.83
283.7	1311.92
283.71	1312
283.72	1312.08
283.73	1312.17
283.74	1312.25
283.75	1312.34
283.76	1312.42
283.77	1312.51
283.78	1312.59
283.79	1312.67
283.8	1312.76
283.81	1312.84
283.82	1312.93
283.83	1313.01
283.84	1313.1
283.85	1313.18
283.86	1313.26
283.87	1313.35
283.88	1313.43
283.89	1313.52
283.9	1313.6
283.91	1313.69
283.92	1313.77
283.93	1313.85
283.94	1313.94
283.95	1314.02
283.96	1314.11
283.97	1314.19
283.98	1314.28
283.99	1314.36
284	1314.44
284.01	1314.53
284.02	1314.61
284.03	1314.7
284.04	1314.78
284.05	1314.87
284.06	1314.95
284.07	1315.03
284.08	1315.12
284.09	1315.2
284.1	1315.29
284.11	1315.37
284.12	1315.46
284.13	1315.54
284.14	1315.62
284.15	1315.71
284.16	1315.79
284.17	1315.88
284.18	1315.96
284.19	1316.05
284.2	1316.13
284.21	1316.21
284.22	1316.3
284.23	1316.38
284.24	1316.47
284.25	1316.55
284.26	1316.64
284.27	1316.72
284.28	1316.8
284.29	1316.89
284.3	1316.97
284.31	1317.06
284.32	1317.14
284.33	1317.23
284.34	1317.31
284.35	1317.39
284.36	1317.48
284.37	1317.56
284.38	1317.65
284.39	1317.73
284.4	1317.82
284.41	1317.9
284.42	1317.98
284.43	1318.07
284.44	1318.15
284.45	1318.24
284.46	1318.32
284.47	1318.4
284.48	1318.49
284.49	1318.57
284.5	1318.66
284.51	1318.74
284.52	1318.83
284.53	1318.91
284.54	1318.99
284.55	1319.08
284.56	1319.16
284.57	1319.25
284.58	1319.33
284.59	1319.42
284.6	1319.5
284.61	1319.58
284.62	1319.67
284.63	1319.75
284.64	1319.84
284.65	1319.92
284.66	1320.01
284.67	1320.09
284.68	1320.17
284.69	1320.26
284.7	1320.34
284.71	1320.43
284.72	1320.51
284.73	1320.6
284.74	1320.68
284.75	1320.76
284.76	1320.85
284.77	1320.93
284.78	1321.02
284.79	1321.1
284.8	1321.19
284.81	1321.27
284.82	1321.35
284.83	1321.44
284.84	1321.52
284.85	1321.61
284.86	1321.69
284.87	1321.78
284.88	1321.86
284.89	1321.94
284.9	1322.03
284.91	1322.11
284.92	1322.2
284.93	1322.28
284.94	1322.37
284.95	1322.45
284.96	1322.53
284.97	1322.62
284.98	1322.7
284.99	1322.79
285	1322.87
285.01	1322.96
285.02	1323.04
285.03	1323.12
285.04	1323.21
285.05	1323.29
285.06	1323.38
285.07	1323.46
285.08	1323.55
285.09	1323.63
285.1	1323.71
285.11	1323.8
285.12	1323.88
285.13	1323.97
285.14	1324.05
285.15	1324.14
285.16	1324.22
285.17	1324.3
285.18	1324.39
285.19	1324.47
285.2	1324.56
285.21	1324.64
285.22	1324.73
285.23	1324.81
285.24	1324.89
285.25	1324.98
285.26	1325.06
285.27	1325.15
285.28	1325.23
285.29	1325.32
285.3	1325.4
285.31	1325.48
285.32	1325.57
285.33	1325.65
285.34	1325.74
285.35	1325.82
285.36	1325.91
285.37	1325.99
285.38	1326.07
285.39	1326.16
285.4	1326.24
285.41	1326.33
285.42	1326.41
285.43	1326.5
285.44	1326.58
285.45	1326.66
285.46	1326.75
285.47	1326.83
285.48	1326.92
285.49	1327
285.5	1327.09
285.51	1327.17
285.52	1327.25
285.53	1327.34
285.54	1327.42
285.55	1327.51
285.56	1327.59
285.57	1327.68
285.58	1327.76
285.59	1327.84
285.6	1327.93
285.61	1328.01
285.62	1328.1
285.63	1328.18
285.64	1328.27
285.65	1328.35
285.66	1328.43
285.67	1328.52
285.68	1328.6
285.69	1328.69
285.7	1328.77
285.71	1328.86
285.72	1328.94
285.73	1329.02
285.74	1329.11
285.75	1329.19
285.76	1329.28
285.77	1329.36
285.78	1329.44
285.79	1329.53
285.8	1329.61
285.81	1329.7
285.82	1329.78
285.83	1329.87
285.84	1329.95
285.85	1330.03
285.86	1330.12
285.87	1330.2
285.88	1330.29
285.89	1330.37
285.9	1330.46
285.91	1330.54
285.92	1330.62
285.93	1330.71
285.94	1330.79
285.95	1330.88
285.96	1330.96
285.97	1331.05
285.98	1331.13
285.99	1331.21
286	1331.3
286.01	1331.38
286.02	1331.47
286.03	1331.55
286.04	1331.64
286.05	1331.72
286.06	1331.8
286.07	1331.89
286.08	1331.97
286.09	1332.06
286.1	1332.14
286.11	1332.23
286.12	1332.31
286.13	1332.39
286.14	1332.48
286.15	1332.56
286.16	1332.65
286.17	1332.73
286.18	1332.82
286.19	1332.9
286.2	1332.98
286.21	1333.07
286.22	1333.15
286.23	1333.24
286.24	1333.32
286.25	1333.41
286.26	1333.49
286.27	1333.57
286.28	1333.66
286.29	1333.74
286.3	1333.83
286.31	1333.91
286.32	1334
286.33	1334.08
286.34	1334.16
286.35	1334.25
286.36	1334.33
286.37	1334.42
286.38	1334.5
286.39	1334.59
286.4	1334.67
286.41	1334.75
286.42	1334.84
286.43	1334.92
286.44	1335.01
286.45	1335.09
286.46	1335.18
286.47	1335.26
286.48	1335.34
286.49	1335.43
286.5	1335.51
286.51	1335.6
286.52	1335.68
286.53	1335.77
286.54	1335.85
286.55	1335.93
286.56	1336.02
286.57	1336.1
286.58	1336.19
286.59	1336.27
286.6	1336.36
286.61	1336.44
286.62	1336.52
286.63	1336.61
286.64	1336.69
286.65	1336.78
286.66	1336.86
286.67	1336.95
286.68	1337.03
286.69	1337.11
286.7	1337.2
286.71	1337.28
286.72	1337.37
286.73	1337.45
286.74	1337.54
286.75	1337.62
286.76	1337.7
286.77	1337.79
286.78	1337.87
286.79	1337.96
286.8	1338.04
286.81	1338.13
286.82	1338.21
286.83	1338.29
286.84	1338.38
286.85	1338.46
286.86	1338.55
286.87	1338.63
286.88	1338.72
286.89	1338.8
286.9	1338.88
286.91	1338.97
286.92	1339.05
286.93	1339.14
286.94	1339.22
286.95	1339.31
286.96	1339.39
286.97	1339.47
286.98	1339.56
286.99	1339.64
287	1339.73
287.01	1339.81
287.02	1339.9
287.03	1339.98
287.04	1340.06
287.05	1340.15
287.06	1340.23
287.07	1340.32
287.08	1340.4
287.09	1340.49
287.1	1340.57
287.11	1340.65
287.12	1340.74
287.13	1340.82
287.14	1340.91
287.15	1340.99
287.16	1341.07
287.17	1341.16
287.18	1341.24
287.19	1341.33
287.2	1341.41
287.21	1341.5
287.22	1341.58
287.23	1341.66
287.24	1341.75
287.25	1341.83
287.26	1341.92
287.27	1342
287.28	1342.09
287.29	1342.17
287.3	1342.25
287.31	1342.34
287.32	1342.42
287.33	1342.51
287.34	1342.59
287.35	1342.68
287.36	1342.76
287.37	1342.84
287.38	1342.93
287.39	1343.01
287.4	1343.1
287.41	1343.18
287.42	1343.27
287.43	1343.35
287.44	1343.43
287.45	1343.52
287.46	1343.6
287.47	1343.69
287.48	1343.77
287.49	1343.86
287.5	1343.94
287.51	1344.02
287.52	1344.11
287.53	1344.19
287.54	1344.28
287.55	1344.36
287.56	1344.45
287.57	1344.53
287.58	1344.61
287.59	1344.7
287.6	1344.78
287.61	1344.87
287.62	1344.95
287.63	1345.04
287.64	1345.12
287.65	1345.2
287.66	1345.29
287.67	1345.37
287.68	1345.46
287.69	1345.54
287.7	1345.63
287.71	1345.71
287.72	1345.79
287.73	1345.88
287.74	1345.96
287.75	1346.05
287.76	1346.13
287.77	1346.22
287.78	1346.3
287.79	1346.38
287.8	1346.47
287.81	1346.55
287.82	1346.64
287.83	1346.72
287.84	1346.81
287.85	1346.89
287.86	1346.97
287.87	1347.06
287.88	1347.14
287.89	1347.23
287.9	1347.31
287.91	1347.4
287.92	1347.48
287.93	1347.56
287.94	1347.65
287.95	1347.73
287.96	1347.82
287.97	1347.9
287.98	1347.99
287.99	1348.07
288	1348.15
288.01	1348.24
288.02	1348.32
288.03	1348.41
288.04	1348.49
288.05	1348.58
288.06	1348.66
288.07	1348.74
288.08	1348.83
288.09	1348.91
288.1	1349
288.11	1349.08
288.12	1349.17
288.13	1349.25
288.14	1349.33
288.15	1349.42
288.16	1349.5
288.17	1349.59
288.18	1349.67
288.19	1349.76
288.2	1349.84
288.21	1349.92
288.22	1350.01
288.23	1350.09
288.24	1350.18
288.25	1350.26
288.26	1350.35
288.27	1350.43
288.28	1350.51
288.29	1350.6
288.3	1350.68
288.31	1350.77
288.32	1350.85
288.33	1350.94
288.34	1351.02
288.35	1351.1
288.36	1351.19
288.37	1351.27
288.38	1351.36
288.39	1351.44
288.4	1351.53
288.41	1351.61
288.42	1351.69
288.43	1351.78
288.44	1351.86
288.45	1351.95
288.46	1352.03
288.47	1352.12
288.48	1352.2
288.49	1352.28
288.5	1352.37
288.51	1352.45
288.52	1352.54
288.53	1352.62
288.54	1352.7
288.55	1352.79
288.56	1352.87
288.57	1352.96
288.58	1353.04
288.59	1353.13
288.6	1353.21
288.61	1353.29
288.62	1353.38
288.63	1353.46
288.64	1353.55
288.65	1353.63
288.66	1353.72
288.67	1353.8
288.68	1353.88
288.69	1353.97
288.7	1354.05
288.71	1354.14
288.72	1354.22
288.73	1354.31
288.74	1354.39
288.75	1354.47
288.76	1354.56
288.77	1354.64
288.78	1354.73
288.79	1354.81
288.8	1354.9
288.81	1354.98
288.82	1355.06
288.83	1355.15
288.84	1355.23
288.85	1355.32
288.86	1355.4
288.87	1355.49
288.88	1355.57
288.89	1355.65
288.9	1355.74
288.91	1355.82
288.92	1355.91
288.93	1355.99
288.94	1356.08
288.95	1356.16
288.96	1356.24
288.97	1356.33
288.98	1356.41
288.99	1356.5
289	1356.58
289.01	1356.67
289.02	1356.75
289.03	1356.83
289.04	1356.92
289.05	1357
289.06	1357.09
289.07	1357.17
289.08	1357.26
289.09	1357.34
289.1	1357.42
289.11	1357.51
289.12	1357.59
289.13	1357.68
289.14	1357.76
289.15	1357.85
289.16	1357.93
289.17	1358.01
289.18	1358.1
289.19	1358.18
289.2	1358.27
289.21	1358.35
289.22	1358.44
289.23	1358.52
289.24	1358.6
289.25	1358.69
289.26	1358.77
289.27	1358.86
289.28	1358.94
289.29	1359.03
289.3	1359.11
289.31	1359.19
289.32	1359.28
289.33	1359.36
289.34	1359.45
289.35	1359.53
289.36	1359.62
289.37	1359.7
289.38	1359.78
289.39	1359.87
289.4	1359.95
289.41	1360.04
289.42	1360.12
289.43	1360.21
289.44	1360.29
289.45	1360.37
289.46	1360.46
289.47	1360.54
289.48	1360.63
289.49	1360.71
289.5	1360.8
289.51	1360.88
289.52	1360.96
289.53	1361.05
289.54	1361.13
289.55	1361.22
289.56	1361.3
289.57	1361.39
289.58	1361.47
289.59	1361.55
289.6	1361.64
289.61	1361.72
289.62	1361.81
289.63	1361.89
289.64	1361.98
289.65	1362.06
289.66	1362.14
289.67	1362.23
289.68	1362.31
289.69	1362.4
289.7	1362.48
289.71	1362.57
289.72	1362.65
289.73	1362.73
289.74	1362.82
289.75	1362.9
289.76	1362.99
289.77	1363.07
289.78	1363.16
289.79	1363.24
289.8	1363.32
289.81	1363.41
289.82	1363.49
289.83	1363.58
289.84	1363.66
289.85	1363.75
289.86	1363.83
289.87	1363.91
289.88	1364
289.89	1364.08
289.9	1364.17
289.91	1364.25
289.92	1364.33
289.93	1364.42
289.94	1364.5
289.95	1364.59
289.96	1364.67
289.97	1364.76
289.98	1364.84
289.99	1364.92
290	1365
290.01	1365.08
290.02	1365.15
290.03	1365.22
290.04	1365.3
290.05	1365.37
290.06	1365.44
290.07	1365.51
290.08	1365.59
290.09	1365.66
290.1	1365.73
290.11	1365.81
290.12	1365.88
290.13	1365.95
290.14	1366.02
290.15	1366.1
290.16	1366.17
290.17	1366.24
290.18	1366.32
290.19	1366.39
290.2	1366.46
290.21	1366.53
290.22	1366.61
290.23	1366.68
290.24	1366.75
290.25	1366.83
290.26	1366.9
290.27	1366.97
290.28	1367.05
290.29	1367.12
290.3	1367.19
290.31	1367.26
290.32	1367.34
290.33	1367.41
290.34	1367.48
290.35	1367.56
290.36	1367.63
290.37	1367.7
290.38	1367.77
290.39	1367.85
290.4	1367.92
290.41	1367.99
290.42	1368.07
290.43	1368.14
290.44	1368.21
290.45	1368.28
290.46	1368.36
290.47	1368.43
290.48	1368.5
290.49	1368.58
290.5	1368.65
290.51	1368.72
290.52	1368.8
290.53	1368.87
290.54	1368.94
290.55	1369.01
290.56	1369.09
290.57	1369.16
290.58	1369.23
290.59	1369.31
290.6	1369.38
290.61	1369.45
290.62	1369.52
290.63	1369.6
290.64	1369.67
290.65	1369.74
290.66	1369.82
290.67	1369.89
290.68	1369.96
290.69	1370.04
290.7	1370.11
290.71	1370.18
290.72	1370.25
290.73	1370.33
290.74	1370.4
290.75	1370.47
290.76	1370.55
290.77	1370.62
290.78	1370.69
290.79	1370.76
290.8	1370.84
290.81	1370.91
290.82	1370.98
290.83	1371.06
290.84	1371.13
290.85	1371.2
290.86	1371.27
290.87	1371.35
290.88	1371.42
290.89	1371.49
290.9	1371.57
290.91	1371.64
290.92	1371.71
290.93	1371.79
290.94	1371.86
290.95	1371.93
290.96	1372
290.97	1372.08
290.98	1372.15
290.99	1372.22
291	1372.3
291.01	1372.37
291.02	1372.44
291.03	1372.51
291.04	1372.59
291.05	1372.66
291.06	1372.73
291.07	1372.81
291.08	1372.88
291.09	1372.95
291.1	1373.02
291.11	1373.1
291.12	1373.17
291.13	1373.24
291.14	1373.32
291.15	1373.39
291.16	1373.46
291.17	1373.54
291.18	1373.61
291.19	1373.68
291.2	1373.75
291.21	1373.83
291.22	1373.9
291.23	1373.97
291.24	1374.05
291.25	1374.12
291.26	1374.19
291.27	1374.26
291.28	1374.34
291.29	1374.41
291.3	1374.48
291.31	1374.56
291.32	1374.63
291.33	1374.7
291.34	1374.77
291.35	1374.85
291.36	1374.92
291.37	1374.99
291.38	1375.07
291.39	1375.14
291.4	1375.21
291.41	1375.29
291.42	1375.36
291.43	1375.43
291.44	1375.5
291.45	1375.58
291.46	1375.65
291.47	1375.72
291.48	1375.8
291.49	1375.87
291.5	1375.94
291.51	1376.01
291.52	1376.09
291.53	1376.16
291.54	1376.23
291.55	1376.31
291.56	1376.38
291.57	1376.45
291.58	1376.53
291.59	1376.6
291.6	1376.67
291.61	1376.74
291.62	1376.82
291.63	1376.89
291.64	1376.96
291.65	1377.04
291.66	1377.11
291.67	1377.18
291.68	1377.25
291.69	1377.33
291.7	1377.4
291.71	1377.47
291.72	1377.55
291.73	1377.62
291.74	1377.69
291.75	1377.76
291.76	1377.84
291.77	1377.91
291.78	1377.98
291.79	1378.06
291.8	1378.13
291.81	1378.2
291.82	1378.28
291.83	1378.35
291.84	1378.42
291.85	1378.49
291.86	1378.57
291.87	1378.64
291.88	1378.71
291.89	1378.79
291.9	1378.86
291.91	1378.93
291.92	1379
291.93	1379.08
291.94	1379.15
291.95	1379.22
291.96	1379.3
291.97	1379.37
291.98	1379.44
291.99	1379.51
292	1379.59
292.01	1379.66
292.02	1379.73
292.03	1379.81
292.04	1379.88
292.05	1379.95
292.06	1380.03
292.07	1380.1
292.08	1380.17
292.09	1380.24
292.1	1380.32
292.11	1380.39
292.12	1380.46
292.13	1380.54
292.14	1380.61
292.15	1380.68
292.16	1380.75
292.17	1380.83
292.18	1380.9
292.19	1380.97
292.2	1381.05
292.21	1381.12
292.22	1381.19
292.23	1381.26
292.24	1381.34
292.25	1381.41
292.26	1381.48
292.27	1381.56
292.28	1381.63
292.29	1381.7
292.3	1381.78
292.31	1381.85
292.32	1381.92
292.33	1381.99
292.34	1382.07
292.35	1382.14
292.36	1382.21
292.37	1382.29
292.38	1382.36
292.39	1382.43
292.4	1382.5
292.41	1382.58
292.42	1382.65
292.43	1382.72
292.44	1382.8
292.45	1382.87
292.46	1382.94
292.47	1383.02
292.48	1383.09
292.49	1383.16
292.5	1383.23
292.51	1383.31
292.52	1383.38
292.53	1383.45
292.54	1383.53
292.55	1383.6
292.56	1383.67
292.57	1383.74
292.58	1383.82
292.59	1383.89
292.6	1383.96
292.61	1384.04
292.62	1384.11
292.63	1384.18
292.64	1384.25
292.65	1384.33
292.66	1384.4
292.67	1384.47
292.68	1384.55
292.69	1384.62
292.7	1384.69
292.71	1384.77
292.72	1384.84
292.73	1384.91
292.74	1384.98
292.75	1385.06
292.76	1385.13
292.77	1385.2
292.78	1385.28
292.79	1385.35
292.8	1385.42
292.81	1385.49
292.82	1385.57
292.83	1385.64
292.84	1385.71
292.85	1385.79
292.86	1385.86
292.87	1385.93
292.88	1386
292.89	1386.08
292.9	1386.15
292.91	1386.22
292.92	1386.3
292.93	1386.37
292.94	1386.44
292.95	1386.52
292.96	1386.59
292.97	1386.66
292.98	1386.73
292.99	1386.81
293	1386.88
293.01	1386.95
293.02	1387.03
293.03	1387.1
293.04	1387.17
293.05	1387.24
293.06	1387.32
293.07	1387.39
293.08	1387.46
293.09	1387.54
293.1	1387.61
293.11	1387.68
293.12	1387.76
293.13	1387.83
293.14	1387.9
293.15	1387.97
293.16	1388.05
293.17	1388.12
293.18	1388.19
293.19	1388.27
293.2	1388.34
293.21	1388.41
293.22	1388.48
293.23	1388.56
293.24	1388.63
293.25	1388.7
293.26	1388.78
293.27	1388.85
293.28	1388.92
293.29	1388.99
293.3	1389.07
293.31	1389.14
293.32	1389.21
293.33	1389.29
293.34	1389.36
293.35	1389.43
293.36	1389.51
293.37	1389.58
293.38	1389.65
293.39	1389.72
293.4	1389.8
293.41	1389.87
293.42	1389.94
293.43	1390.02
293.44	1390.09
293.45	1390.16
293.46	1390.23
293.47	1390.31
293.48	1390.38
293.49	1390.45
293.5	1390.53
293.51	1390.6
293.52	1390.67
293.53	1390.74
293.54	1390.82
293.55	1390.89
293.56	1390.96
293.57	1391.04
293.58	1391.11
293.59	1391.18
293.6	1391.26
293.61	1391.33
293.62	1391.4
293.63	1391.47
293.64	1391.55
293.65	1391.62
293.66	1391.69
293.67	1391.77
293.68	1391.84
293.69	1391.91
293.7	1391.98
293.71	1392.06
293.72	1392.13
293.73	1392.2
293.74	1392.28
293.75	1392.35
293.76	1392.42
293.77	1392.49
293.78	1392.57
293.79	1392.64
293.8	1392.71
293.81	1392.79
293.82	1392.86
293.83	1392.93
293.84	1393.01
293.85	1393.08
293.86	1393.15
293.87	1393.22
293.88	1393.3
293.89	1393.37
293.9	1393.44
293.91	1393.52
293.92	1393.59
293.93	1393.66
293.94	1393.73
293.95	1393.81
293.96	1393.88
293.97	1393.95
293.98	1394.03
293.99	1394.1
294	1394.17
294.01	1394.25
294.02	1394.32
294.03	1394.39
294.04	1394.46
294.05	1394.54
294.06	1394.61
294.07	1394.68
294.08	1394.76
294.09	1394.83
294.1	1394.9
294.11	1394.97
294.12	1395.05
294.13	1395.12
294.14	1395.19
294.15	1395.27
294.16	1395.34
294.17	1395.41
294.18	1395.48
294.19	1395.56
294.2	1395.63
294.21	1395.7
294.22	1395.78
294.23	1395.85
294.24	1395.92
294.25	1396
294.26	1396.07
294.27	1396.14
294.28	1396.21
294.29	1396.29
294.3	1396.36
294.31	1396.43
294.32	1396.51
294.33	1396.58
294.34	1396.65
294.35	1396.72
294.36	1396.8
294.37	1396.87
294.38	1396.94
294.39	1397.02
294.4	1397.09
294.41	1397.16
294.42	1397.23
294.43	1397.31
294.44	1397.38
294.45	1397.45
294.46	1397.53
294.47	1397.6
294.48	1397.67
294.49	1397.75
294.5	1397.82
294.51	1397.89
294.52	1397.96
294.53	1398.04
294.54	1398.11
294.55	1398.18
294.56	1398.26
294.57	1398.33
294.58	1398.4
294.59	1398.47
294.6	1398.55
294.61	1398.62
294.62	1398.69
294.63	1398.77
294.64	1398.84
294.65	1398.91
294.66	1398.98
294.67	1399.06
294.68	1399.13
294.69	1399.2
294.7	1399.28
294.71	1399.35
294.72	1399.42
294.73	1399.5
294.74	1399.57
294.75	1399.64
294.76	1399.71
294.77	1399.79
294.78	1399.86
294.79	1399.93
294.8	1400.01
294.81	1400.08
294.82	1400.15
294.83	1400.22
294.84	1400.3
294.85	1400.37
294.86	1400.44
294.87	1400.52
294.88	1400.59
294.89	1400.66
294.9	1400.74
294.91	1400.81
294.92	1400.88
294.93	1400.95
294.94	1401.03
294.95	1401.1
294.96	1401.17
294.97	1401.25
294.98	1401.32
294.99	1401.39
295	1401.46
295.01	1401.54
295.02	1401.61
295.03	1401.68
295.04	1401.76
295.05	1401.83
295.06	1401.9
295.07	1401.97
295.08	1402.05
295.09	1402.12
295.1	1402.19
295.11	1402.27
295.12	1402.34
295.13	1402.41
295.14	1402.49
295.15	1402.56
295.16	1402.63
295.17	1402.7
295.18	1402.78
295.19	1402.85
295.2	1402.92
295.21	1403
295.22	1403.07
295.23	1403.14
295.24	1403.21
295.25	1403.29
295.26	1403.36
295.27	1403.43
295.28	1403.51
295.29	1403.58
295.3	1403.65
295.31	1403.72
295.32	1403.8
295.33	1403.87
295.34	1403.94
295.35	1404.02
295.36	1404.09
295.37	1404.16
295.38	1404.24
295.39	1404.31
295.4	1404.38
295.41	1404.45
295.42	1404.53
295.43	1404.6
295.44	1404.67
295.45	1404.75
295.46	1404.82
295.47	1404.89
295.48	1404.96
295.49	1405.04
295.5	1405.11
295.51	1405.18
295.52	1405.26
295.53	1405.33
295.54	1405.4
295.55	1405.47
295.56	1405.55
295.57	1405.62
295.58	1405.69
295.59	1405.77
295.6	1405.84
295.61	1405.91
295.62	1405.99
295.63	1406.06
295.64	1406.13
295.65	1406.2
295.66	1406.28
295.67	1406.35
295.68	1406.42
295.69	1406.5
295.7	1406.57
295.71	1406.64
295.72	1406.71
295.73	1406.79
295.74	1406.86
295.75	1406.93
295.76	1407.01
295.77	1407.08
295.78	1407.15
295.79	1407.23
295.8	1407.3
295.81	1407.37
295.82	1407.44
295.83	1407.52
295.84	1407.59
295.85	1407.66
295.86	1407.74
295.87	1407.81
295.88	1407.88
295.89	1407.95
295.9	1408.03
295.91	1408.1
295.92	1408.17
295.93	1408.25
295.94	1408.32
295.95	1408.39
295.96	1408.46
295.97	1408.54
295.98	1408.61
295.99	1408.68
296	1408.76
296.01	1408.83
296.02	1408.9
296.03	1408.98
296.04	1409.05
296.05	1409.12
296.06	1409.19
296.07	1409.27
296.08	1409.34
296.09	1409.41
296.1	1409.49
296.11	1409.56
296.12	1409.63
296.13	1409.7
296.14	1409.78
296.15	1409.85
296.16	1409.92
296.17	1410
296.18	1410.07
296.19	1410.14
296.2	1410.21
296.21	1410.29
296.22	1410.36
296.23	1410.43
296.24	1410.51
296.25	1410.58
296.26	1410.65
296.27	1410.73
296.28	1410.8
296.29	1410.87
296.3	1410.94
296.31	1411.02
296.32	1411.09
296.33	1411.16
296.34	1411.24
296.35	1411.31
296.36	1411.38
296.37	1411.45
296.38	1411.53
296.39	1411.6
296.4	1411.67
296.41	1411.75
296.42	1411.82
296.43	1411.89
296.44	1411.96
296.45	1412.04
296.46	1412.11
296.47	1412.18
296.48	1412.26
296.49	1412.33
296.5	1412.4
296.51	1412.48
296.52	1412.55
296.53	1412.62
296.54	1412.69
296.55	1412.77
296.56	1412.84
296.57	1412.91
296.58	1412.99
296.59	1413.06
296.6	1413.13
296.61	1413.2
296.62	1413.28
296.63	1413.35
296.64	1413.42
296.65	1413.5
296.66	1413.57
296.67	1413.64
296.68	1413.72
296.69	1413.79
296.7	1413.86
296.71	1413.93
296.72	1414.01
296.73	1414.08
296.74	1414.15
296.75	1414.23
296.76	1414.3
296.77	1414.37
296.78	1414.44
296.79	1414.52
296.8	1414.59
296.81	1414.66
296.82	1414.74
296.83	1414.81
296.84	1414.88
296.85	1414.95
296.86	1415.03
296.87	1415.1
296.88	1415.17
296.89	1415.25
296.9	1415.32
296.91	1415.39
296.92	1415.47
296.93	1415.54
296.94	1415.61
296.95	1415.68
296.96	1415.76
296.97	1415.83
296.98	1415.9
296.99	1415.98
297	1416.05
297.01	1416.12
297.02	1416.19
297.03	1416.27
297.04	1416.34
297.05	1416.41
297.06	1416.49
297.07	1416.56
297.08	1416.63
297.09	1416.7
297.1	1416.78
297.11	1416.85
297.12	1416.92
297.13	1417
297.14	1417.07
297.15	1417.14
297.16	1417.22
297.17	1417.29
297.18	1417.36
297.19	1417.43
297.2	1417.51
297.21	1417.58
297.22	1417.65
297.23	1417.73
297.24	1417.8
297.25	1417.87
297.26	1417.94
297.27	1418.02
297.28	1418.09
297.29	1418.16
297.3	1418.24
297.31	1418.31
297.32	1418.38
297.33	1418.46
297.34	1418.53
297.35	1418.6
297.36	1418.67
297.37	1418.75
297.38	1418.82
297.39	1418.89
297.4	1418.97
297.41	1419.04
297.42	1419.11
297.43	1419.18
297.44	1419.26
297.45	1419.33
297.46	1419.4
297.47	1419.48
297.48	1419.55
297.49	1419.62
297.5	1419.69
297.51	1419.77
297.52	1419.84
297.53	1419.91
297.54	1419.99
297.55	1420.06
297.56	1420.13
297.57	1420.21
297.58	1420.28
297.59	1420.35
297.6	1420.42
297.61	1420.5
297.62	1420.57
297.63	1420.64
297.64	1420.72
297.65	1420.79
297.66	1420.86
297.67	1420.93
297.68	1421.01
297.69	1421.08
297.7	1421.15
297.71	1421.23
297.72	1421.3
297.73	1421.37
297.74	1421.44
297.75	1421.52
297.76	1421.59
297.77	1421.66
297.78	1421.74
297.79	1421.81
297.8	1421.88
297.81	1421.96
297.82	1422.03
297.83	1422.1
297.84	1422.17
297.85	1422.25
297.86	1422.32
297.87	1422.39
297.88	1422.47
297.89	1422.54
297.9	1422.61
297.91	1422.68
297.92	1422.76
297.93	1422.83
297.94	1422.9
297.95	1422.98
297.96	1423.05
297.97	1423.12
297.98	1423.19
297.99	1423.27
298	1423.34
298.01	1423.41
298.02	1423.49
298.03	1423.56
298.04	1423.63
298.05	1423.71
298.06	1423.78
298.07	1423.85
298.08	1423.92
298.09	1424
298.1	1424.07
298.11	1424.14
298.12	1424.22
298.13	1424.29
298.14	1424.36
298.15	1424.43
298.16	1424.49
298.17	1424.56
298.18	1424.62
298.19	1424.68
298.2	1424.75
298.21	1424.81
298.22	1424.87
298.23	1424.94
298.24	1425
298.25	1425.06
298.26	1425.12
298.27	1425.19
298.28	1425.25
298.29	1425.31
298.3	1425.38
298.31	1425.44
298.32	1425.5
298.33	1425.57
298.34	1425.63
298.35	1425.69
298.36	1425.76
298.37	1425.82
298.38	1425.88
298.39	1425.95
298.4	1426.01
298.41	1426.07
298.42	1426.14
298.43	1426.2
298.44	1426.26
298.45	1426.33
298.46	1426.39
298.47	1426.45
298.48	1426.52
298.49	1426.58
298.5	1426.64
298.51	1426.7
298.52	1426.77
298.53	1426.83
298.54	1426.89
298.55	1426.96
298.56	1427.02
298.57	1427.08
298.58	1427.15
298.59	1427.21
298.6	1427.27
298.61	1427.34
298.62	1427.4
298.63	1427.46
298.64	1427.53
298.65	1427.59
298.66	1427.65
298.67	1427.72
298.68	1427.78
298.69	1427.84
298.7	1427.91
298.71	1427.97
298.72	1428.03
298.73	1428.1
298.74	1428.16
298.75	1428.22
298.76	1428.28
298.77	1428.35
298.78	1428.41
298.79	1428.47
298.8	1428.54
298.81	1428.6
298.82	1428.66
298.83	1428.73
298.84	1428.79
298.85	1428.85
298.86	1428.92
298.87	1428.98
298.88	1429.04
298.89	1429.11
298.9	1429.17
298.91	1429.23
298.92	1429.3
298.93	1429.36
298.94	1429.42
298.95	1429.49
298.96	1429.55
298.97	1429.61
298.98	1429.68
298.99	1429.74
299	1429.8
299.01	1429.86
299.02	1429.93
299.03	1429.99
299.04	1430.05
299.05	1430.12
299.06	1430.18
299.07	1430.24
299.08	1430.31
299.09	1430.37
299.1	1430.43
299.11	1430.5
299.12	1430.56
299.13	1430.62
299.14	1430.69
299.15	1430.75
299.16	1430.81
299.17	1430.88
299.18	1430.94
299.19	1431
299.2	1431.07
299.21	1431.13
299.22	1431.19
299.23	1431.25
299.24	1431.32
299.25	1431.38
299.26	1431.44
299.27	1431.51
299.28	1431.57
299.29	1431.63
299.3	1431.7
299.31	1431.76
299.32	1431.82
299.33	1431.89
299.34	1431.95
299.35	1432.01
299.36	1432.08
299.37	1432.14
299.38	1432.2
299.39	1432.27
299.4	1432.33
299.41	1432.39
299.42	1432.46
299.43	1432.52
299.44	1432.58
299.45	1432.65
299.46	1432.71
299.47	1432.77
299.48	1432.83
299.49	1432.9
299.5	1432.96
299.51	1433.02
299.52	1433.09
299.53	1433.15
299.54	1433.21
299.55	1433.28
299.56	1433.34
299.57	1433.4
299.58	1433.47
299.59	1433.53
299.6	1433.59
299.61	1433.66
299.62	1433.72
299.63	1433.78
299.64	1433.85
299.65	1433.91
299.66	1433.97
299.67	1434.04
299.68	1434.1
299.69	1434.16
299.7	1434.23
299.71	1434.29
299.72	1434.35
299.73	1434.41
299.74	1434.48
299.75	1434.54
299.76	1434.6
299.77	1434.67
299.78	1434.73
299.79	1434.79
299.8	1434.86
299.81	1434.92
299.82	1434.98
299.83	1435.05
299.84	1435.11
299.85	1435.17
299.86	1435.24
299.87	1435.3
299.88	1435.36
299.89	1435.43
299.9	1435.49
299.91	1435.55
299.92	1435.62
299.93	1435.68
299.94	1435.74
299.95	1435.81
299.96	1435.87
299.97	1435.93
299.98	1435.99
299.99	1436.06
300	1436.11
300.01	1436.16
300.02	1436.2
300.03	1436.24
300.04	1436.29
300.05	1436.33
300.06	1436.38
300.07	1436.42
300.08	1436.47
300.09	1436.51
300.1	1436.55
300.11	1436.6
300.12	1436.64
300.13	1436.69
300.14	1436.73
300.15	1436.78
300.16	1436.82
300.17	1436.87
300.18	1436.91
300.19	1436.95
300.2	1437
300.21	1437.04
300.22	1437.09
300.23	1437.13
300.24	1437.18
300.25	1437.22
300.26	1437.26
300.27	1437.31
300.28	1437.35
300.29	1437.4
300.3	1437.44
300.31	1437.49
300.32	1437.53
300.33	1437.57
300.34	1437.62
300.35	1437.66
300.36	1437.71
300.37	1437.75
300.38	1437.8
300.39	1437.84
300.4	1437.88
300.41	1437.93
300.42	1437.97
300.43	1438.02
300.44	1438.06
300.45	1438.11
300.46	1438.15
300.47	1438.2
300.48	1438.24
300.49	1438.28
300.5	1438.33
300.51	1438.37
300.52	1438.42
300.53	1438.46
300.54	1438.51
300.55	1438.55
300.56	1438.59
300.57	1438.64
300.58	1438.68
300.59	1438.73
300.6	1438.77
300.61	1438.82
300.62	1438.86
300.63	1438.9
300.64	1438.95
300.65	1438.99
300.66	1439.04
300.67	1439.08
300.68	1439.13
300.69	1439.17
300.7	1439.21
300.71	1439.26
300.72	1439.3
300.73	1439.35
300.74	1439.39
300.75	1439.44
300.76	1439.48
300.77	1439.53
300.78	1439.57
300.79	1439.61
300.8	1439.66
300.81	1439.7
300.82	1439.75
300.83	1439.79
300.84	1439.84
300.85	1439.88
300.86	1439.92
300.87	1439.97
300.88	1440.01
300.89	1440.06
300.9	1440.1
300.91	1440.15
300.92	1440.19
300.93	1440.23
300.94	1440.28
300.95	1440.32
300.96	1440.37
300.97	1440.41
300.98	1440.46
300.99	1440.5
301	1440.54
301.01	1440.59
301.02	1440.63
301.03	1440.68
301.04	1440.72
301.05	1440.77
301.06	1440.81
301.07	1440.85
301.08	1440.9
301.09	1440.94
301.1	1440.99
301.11	1441.03
301.12	1441.08
301.13	1441.12
301.14	1441.17
301.15	1441.21
301.16	1441.25
301.17	1441.3
301.18	1441.34
301.19	1441.39
301.2	1441.43
301.21	1441.48
301.22	1441.52
301.23	1441.56
301.24	1441.61
301.25	1441.65
301.26	1441.7
301.27	1441.74
301.28	1441.79
301.29	1441.83
301.3	1441.87
301.31	1441.92
301.32	1441.96
301.33	1442.01
301.34	1442.05
301.35	1442.1
301.36	1442.14
301.37	1442.18
301.38	1442.23
301.39	1442.27
301.4	1442.32
301.41	1442.36
301.42	1442.41
301.43	1442.45
301.44	1442.5
301.45	1442.54
301.46	1442.58
301.47	1442.63
301.48	1442.67
301.49	1442.72
301.5	1442.76
301.51	1442.81
301.52	1442.85
301.53	1442.89
301.54	1442.94
301.55	1442.98
301.56	1443.03
301.57	1443.07
301.58	1443.12
301.59	1443.16
301.6	1443.2
301.61	1443.25
301.62	1443.29
301.63	1443.34
301.64	1443.38
301.65	1443.43
301.66	1443.47
301.67	1443.51
301.68	1443.56
301.69	1443.6
301.7	1443.65
301.71	1443.69
301.72	1443.74
301.73	1443.78
301.74	1443.83
301.75	1443.87
301.76	1443.91
301.77	1443.96
301.78	1444
301.79	1444.05
301.8	1444.09
301.81	1444.14
301.82	1444.18
301.83	1444.22
301.84	1444.27
301.85	1444.31
301.86	1444.36
301.87	1444.4
301.88	1444.45
301.89	1444.49
301.9	1444.53
301.91	1444.58
301.92	1444.62
301.93	1444.67
301.94	1444.71
301.95	1444.76
301.96	1444.8
301.97	1444.84
301.98	1444.89
301.99	1444.93
302	1444.98
302.01	1445.02
302.02	1445.07
302.03	1445.11
302.04	1445.15
302.05	1445.2
302.06	1445.24
302.07	1445.29
302.08	1445.33
302.09	1445.38
302.1	1445.42
302.11	1445.47
302.12	1445.51
302.13	1445.55
302.14	1445.6
302.15	1445.64
302.16	1445.69
302.17	1445.73
302.18	1445.78
302.19	1445.82
302.2	1445.86
302.21	1445.91
302.22	1445.95
302.23	1446
302.24	1446.04
302.25	1446.09
302.26	1446.13
302.27	1446.17
302.28	1446.22
302.29	1446.26
302.3	1446.31
302.31	1446.35
302.32	1446.4
302.33	1446.44
302.34	1446.48
302.35	1446.53
302.36	1446.57
302.37	1446.62
302.38	1446.66
302.39	1446.71
302.4	1446.75
302.41	1446.8
302.42	1446.84
302.43	1446.88
302.44	1446.93
302.45	1446.97
302.46	1447.02
302.47	1447.06
302.48	1447.11
302.49	1447.15
302.5	1447.19
302.51	1447.24
302.52	1447.28
302.53	1447.33
302.54	1447.37
302.55	1447.42
302.56	1447.46
302.57	1447.5
302.58	1447.55
302.59	1447.59
302.6	1447.64
302.61	1447.68
302.62	1447.73
302.63	1447.77
302.64	1447.81
302.65	1447.86
302.66	1447.9
302.67	1447.95
302.68	1447.99
302.69	1448.04
302.7	1448.08
302.71	1448.13
302.72	1448.17
302.73	1448.21
302.74	1448.26
302.75	1448.3
302.76	1448.35
302.77	1448.39
302.78	1448.44
302.79	1448.48
302.8	1448.52
302.81	1448.57
302.82	1448.61
302.83	1448.66
302.84	1448.7
302.85	1448.75
302.86	1448.79
302.87	1448.83
302.88	1448.88
302.89	1448.92
302.9	1448.97
302.91	1449.01
302.92	1449.06
302.93	1449.1
302.94	1449.14
302.95	1449.19
302.96	1449.23
302.97	1449.28
302.98	1449.32
302.99	1449.37
303	1449.41
303.01	1449.45
303.02	1449.5
303.03	1449.54
303.04	1449.59
303.05	1449.63
303.06	1449.68
303.07	1449.72
303.08	1449.77
303.09	1449.81
303.1	1449.85
303.11	1449.9
303.12	1449.94
303.13	1449.99
303.14	1450.03
303.15	1450.08
303.16	1450.12
303.17	1450.16
303.18	1450.21
303.19	1450.25
303.2	1450.3
303.21	1450.34
303.22	1450.39
303.23	1450.43
303.24	1450.47
303.25	1450.52
303.26	1450.56
303.27	1450.61
303.28	1450.65
303.29	1450.7
303.3	1450.74
303.31	1450.78
303.32	1450.83
303.33	1450.87
303.34	1450.92
303.35	1450.96
303.36	1451.01
303.37	1451.05
303.38	1451.1
303.39	1451.14
303.4	1451.18
303.41	1451.23
303.42	1451.27
303.43	1451.32
303.44	1451.36
303.45	1451.41
303.46	1451.45
303.47	1451.49
303.48	1451.54
303.49	1451.58
303.5	1451.63
303.51	1451.67
303.52	1451.72
303.53	1451.76
303.54	1451.8
303.55	1451.85
303.56	1451.89
303.57	1451.94
303.58	1451.98
303.59	1452.03
303.6	1452.07
303.61	1452.11
303.62	1452.16
303.63	1452.2
303.64	1452.25
303.65	1452.29
303.66	1452.34
303.67	1452.38
303.68	1452.43
303.69	1452.47
303.7	1452.51
303.71	1452.56
303.72	1452.6
303.73	1452.65
303.74	1452.69
303.75	1452.74
303.76	1452.78
303.77	1452.82
303.78	1452.87
303.79	1452.91
303.8	1452.96
303.81	1453
303.82	1453.05
303.83	1453.09
303.84	1453.13
303.85	1453.18
303.86	1453.22
303.87	1453.27
303.88	1453.31
303.89	1453.36
303.9	1453.4
303.91	1453.44
303.92	1453.49
303.93	1453.53
303.94	1453.58
303.95	1453.62
303.96	1453.67
303.97	1453.71
303.98	1453.75
303.99	1453.8
304	1453.84
304.01	1453.89
304.02	1453.93
304.03	1453.98
304.04	1454.02
304.05	1454.07
304.06	1454.11
304.07	1454.15
304.08	1454.2
304.09	1454.24
304.1	1454.29
304.11	1454.33
304.12	1454.38
304.13	1454.42
304.14	1454.46
304.15	1454.51
304.16	1454.55
304.17	1454.6
304.18	1454.64
304.19	1454.69
304.2	1454.73
304.21	1454.77
304.22	1454.82
304.23	1454.86
304.24	1454.91
304.25	1454.95
304.26	1455
304.27	1455.04
304.28	1455.08
304.29	1455.13
304.3	1455.17
304.31	1455.22
304.32	1455.26
304.33	1455.31
304.34	1455.35
304.35	1455.4
304.36	1455.44
304.37	1455.48
304.38	1455.53
304.39	1455.57
304.4	1455.62
304.41	1455.66
304.42	1455.71
304.43	1455.75
304.44	1455.79
304.45	1455.84
304.46	1455.88
304.47	1455.93
304.48	1455.97
304.49	1456.02
304.5	1456.06
304.51	1456.1
304.52	1456.15
304.53	1456.19
304.54	1456.24
304.55	1456.28
304.56	1456.33
304.57	1456.37
304.58	1456.41
304.59	1456.46
304.6	1456.5
304.61	1456.55
304.62	1456.59
304.63	1456.64
304.64	1456.68
304.65	1456.72
304.66	1456.77
304.67	1456.81
304.68	1456.86
304.69	1456.9
304.7	1456.95
304.71	1456.99
304.72	1457.04
304.73	1457.08
304.74	1457.12
304.75	1457.17
304.76	1457.21
304.77	1457.26
304.78	1457.3
304.79	1457.35
304.8	1457.39
304.81	1457.43
304.82	1457.48
304.83	1457.52
304.84	1457.57
304.85	1457.61
304.86	1457.66
304.87	1457.7
304.88	1457.74
304.89	1457.79
304.9	1457.83
304.91	1457.88
304.92	1457.92
304.93	1457.97
304.94	1458.01
304.95	1458.05
304.96	1458.1
304.97	1458.14
304.98	1458.19
304.99	1458.23
305	1458.28
305.01	1458.32
305.02	1458.37
305.03	1458.41
305.04	1458.45
305.05	1458.5
305.06	1458.54
305.07	1458.59
305.08	1458.63
305.09	1458.68
305.1	1458.72
305.11	1458.76
305.12	1458.81
305.13	1458.85
305.14	1458.9
305.15	1458.94
305.16	1458.99
305.17	1459.03
305.18	1459.07
305.19	1459.12
305.2	1459.16
305.21	1459.21
305.22	1459.25
305.23	1459.3
305.24	1459.34
305.25	1459.38
305.26	1459.43
305.27	1459.47
305.28	1459.52
305.29	1459.56
305.3	1459.61
305.31	1459.65
305.32	1459.7
305.33	1459.74
305.34	1459.78
305.35	1459.83
305.36	1459.87
305.37	1459.92
305.38	1459.96
305.39	1460.01
305.4	1460.05
305.41	1460.09
305.42	1460.14
305.43	1460.18
305.44	1460.23
305.45	1460.27
305.46	1460.32
305.47	1460.36
305.48	1460.4
305.49	1460.45
305.5	1460.49
305.51	1460.54
305.52	1460.58
305.53	1460.63
305.54	1460.67
305.55	1460.71
305.56	1460.76
305.57	1460.8
305.58	1460.85
305.59	1460.89
305.6	1460.94
305.61	1460.98
305.62	1461.02
305.63	1461.07
305.64	1461.11
305.65	1461.16
305.66	1461.2
305.67	1461.25
305.68	1461.29
305.69	1461.34
305.7	1461.38
305.71	1461.42
305.72	1461.47
305.73	1461.51
305.74	1461.56
305.75	1461.6
305.76	1461.65
305.77	1461.69
305.78	1461.73
305.79	1461.78
305.8	1461.82
305.81	1461.87
305.82	1461.91
305.83	1461.96
305.84	1462
305.85	1462.04
305.86	1462.09
305.87	1462.13
305.88	1462.18
305.89	1462.22
305.9	1462.27
305.91	1462.31
305.92	1462.35
305.93	1462.4
305.94	1462.44
305.95	1462.49
305.96	1462.53
305.97	1462.58
305.98	1462.62
305.99	1462.67
306	1462.71
306.01	1462.75
306.02	1462.8
306.03	1462.84
306.04	1462.89
306.05	1462.93
306.06	1462.98
306.07	1463.02
306.08	1463.06
306.09	1463.11
306.1	1463.15
306.11	1463.2
306.12	1463.24
306.13	1463.29
306.14	1463.33
306.15	1463.37
306.16	1463.42
306.17	1463.46
306.18	1463.51
306.19	1463.55
306.2	1463.6
306.21	1463.64
306.22	1463.68
306.23	1463.73
306.24	1463.77
306.25	1463.82
306.26	1463.86
306.27	1463.91
306.28	1463.95
306.29	1464
306.3	1464.04
306.31	1464.08
306.32	1464.13
306.33	1464.17
306.34	1464.22
306.35	1464.26
306.36	1464.31
306.37	1464.35
306.38	1464.39
306.39	1464.44
306.4	1464.48
306.41	1464.53
306.42	1464.57
306.43	1464.62
306.44	1464.66
306.45	1464.7
306.46	1464.75
306.47	1464.79
306.48	1464.84
306.49	1464.88
306.5	1464.93
306.51	1464.97
306.52	1465.01
306.53	1465.06
306.54	1465.1
306.55	1465.15
306.56	1465.19
306.57	1465.24
306.58	1465.28
306.59	1465.32
306.6	1465.37
306.61	1465.41
306.62	1465.46
306.63	1465.5
306.64	1465.55
306.65	1465.59
306.66	1465.64
306.67	1465.68
306.68	1465.72
306.69	1465.77
306.7	1465.81
306.71	1465.86
306.72	1465.9
306.73	1465.95
306.74	1465.99
306.75	1466.03
306.76	1466.08
306.77	1466.12
306.78	1466.17
306.79	1466.21
306.8	1466.26
306.81	1466.3
306.82	1466.34
306.83	1466.39
306.84	1466.43
306.85	1466.48
306.86	1466.52
306.87	1466.57
306.88	1466.61
306.89	1466.65
306.9	1466.7
306.91	1466.74
306.92	1466.79
306.93	1466.83
306.94	1466.88
306.95	1466.92
306.96	1466.97
306.97	1467.01
306.98	1467.05
306.99	1467.1
307	1467.14
307.01	1467.19
307.02	1467.23
307.03	1467.28
307.04	1467.32
307.05	1467.36
307.06	1467.41
307.07	1467.45
307.08	1467.5
307.09	1467.54
307.1	1467.59
307.11	1467.63
307.12	1467.67
307.13	1467.72
307.14	1467.76
307.15	1467.81
307.16	1467.85
307.17	1467.9
307.18	1467.94
307.19	1467.98
307.2	1468.03
307.21	1468.07
307.22	1468.12
307.23	1468.16
307.24	1468.21
307.25	1468.25
307.26	1468.3
307.27	1468.34
307.28	1468.38
307.29	1468.43
307.3	1468.47
307.31	1468.52
307.32	1468.56
307.33	1468.61
307.34	1468.65
307.35	1468.69
307.36	1468.74
307.37	1468.78
307.38	1468.83
307.39	1468.87
307.4	1468.92
307.41	1468.96
307.42	1469
307.43	1469.05
307.44	1469.09
307.45	1469.14
307.46	1469.18
307.47	1469.23
307.48	1469.27
307.49	1469.31
307.5	1469.36
307.51	1469.4
307.52	1469.45
307.53	1469.49
307.54	1469.54
307.55	1469.58
307.56	1469.62
307.57	1469.67
307.58	1469.71
307.59	1469.76
307.6	1469.8
307.61	1469.85
307.62	1469.89
307.63	1469.94
307.64	1469.98
307.65	1470.02
307.66	1470.07
307.67	1470.11
307.68	1470.16
307.69	1470.2
307.7	1470.25
307.71	1470.29
307.72	1470.33
307.73	1470.38
307.74	1470.42
307.75	1470.47
307.76	1470.51
307.77	1470.56
307.78	1470.6
307.79	1470.64
307.8	1470.69
307.81	1470.73
307.82	1470.78
307.83	1470.82
307.84	1470.87
307.85	1470.91
307.86	1470.95
307.87	1471
307.88	1471.04
307.89	1471.09
307.9	1471.13
307.91	1471.18
307.92	1471.22
307.93	1471.27
307.94	1471.31
307.95	1471.35
307.96	1471.4
307.97	1471.44
307.98	1471.49
307.99	1471.53
308	1471.58
308.01	1471.62
308.02	1471.66
308.03	1471.71
308.04	1471.75
308.05	1471.8
308.06	1471.84
308.07	1471.89
308.08	1471.93
308.09	1471.97
308.1	1472.02
308.11	1472.06
308.12	1472.11
308.13	1472.15
308.14	1472.2
308.15	1472.24
308.16	1472.28
308.17	1472.33
308.18	1472.37
308.19	1472.42
308.2	1472.46
308.21	1472.51
308.22	1472.55
308.23	1472.6
308.24	1472.64
308.25	1472.68
308.26	1472.73
308.27	1472.77
308.28	1472.82
308.29	1472.86
308.3	1472.91
308.31	1472.95
308.32	1472.99
308.33	1473.04
308.34	1473.08
308.35	1473.13
308.36	1473.17
308.37	1473.22
308.38	1473.26
308.39	1473.3
308.4	1473.35
308.41	1473.39
308.42	1473.44
308.43	1473.48
308.44	1473.53
308.45	1473.57
308.46	1473.61
308.47	1473.66
308.48	1473.7
308.49	1473.75
308.5	1473.79
308.51	1473.84
308.52	1473.88
308.53	1473.92
308.54	1473.97
308.55	1474.01
308.56	1474.06
308.57	1474.1
308.58	1474.15
308.59	1474.19
308.6	1474.24
308.61	1474.28
308.62	1474.32
308.63	1474.37
308.64	1474.41
308.65	1474.46
308.66	1474.5
308.67	1474.55
308.68	1474.59
308.69	1474.63
308.7	1474.68
308.71	1474.72
308.72	1474.77
308.73	1474.81
308.74	1474.86
308.75	1474.9
308.76	1474.94
308.77	1474.99
308.78	1475.03
308.79	1475.08
308.8	1475.12
308.81	1475.17
308.82	1475.21
308.83	1475.25
308.84	1475.3
308.85	1475.34
308.86	1475.39
308.87	1475.43
308.88	1475.48
308.89	1475.52
308.9	1475.57
308.91	1475.61
308.92	1475.65
308.93	1475.7
308.94	1475.74
308.95	1475.79
308.96	1475.83
308.97	1475.88
308.98	1475.92
308.99	1475.96
309	1476.01
309.01	1476.05
309.02	1476.1
309.03	1476.14
309.04	1476.19
309.05	1476.23
309.06	1476.27
309.07	1476.32
309.08	1476.36
309.09	1476.41
309.1	1476.45
309.11	1476.5
309.12	1476.54
309.13	1476.58
309.14	1476.63
309.15	1476.67
309.16	1476.72
309.17	1476.76
309.18	1476.81
309.19	1476.85
309.2	1476.9
309.21	1476.94
309.22	1476.98
309.23	1477.03
309.24	1477.07
309.25	1477.12
309.26	1477.16
309.27	1477.21
309.28	1477.25
309.29	1477.29
309.3	1477.34
309.31	1477.38
309.32	1477.43
309.33	1477.47
309.34	1477.52
309.35	1477.56
309.36	1477.6
309.37	1477.65
309.38	1477.69
309.39	1477.74
309.4	1477.78
309.41	1477.83
309.42	1477.87
309.43	1477.91
309.44	1477.96
309.45	1478
309.46	1478.05
309.47	1478.09
309.48	1478.14
309.49	1478.18
309.5	1478.22
309.51	1478.27
309.52	1478.31
309.53	1478.36
309.54	1478.4
309.55	1478.45
309.56	1478.49
309.57	1478.54
309.58	1478.58
309.59	1478.62
309.6	1478.67
309.61	1478.71
309.62	1478.76
309.63	1478.8
309.64	1478.85
309.65	1478.89
309.66	1478.93
309.67	1478.98
309.68	1479.02
309.69	1479.07
309.7	1479.11
309.71	1479.16
309.72	1479.2
309.73	1479.24
309.74	1479.29
309.75	1479.33
309.76	1479.38
309.77	1479.42
309.78	1479.47
309.79	1479.51
309.8	1479.55
309.81	1479.6
309.82	1479.64
309.83	1479.69
309.84	1479.73
309.85	1479.78
309.86	1479.82
309.87	1479.87
309.88	1479.91
309.89	1479.95
309.9	1480
309.91	1480.04
309.92	1480.09
309.93	1480.13
309.94	1480.18
309.95	1480.22
309.96	1480.26
309.97	1480.31
309.98	1480.35
309.99	1480.4
310	1480.43
310.01	1480.45
310.02	1480.46
310.03	1480.48
310.04	1480.5
310.05	1480.52
310.06	1480.53
310.07	1480.55
310.08	1480.57
310.09	1480.59
310.1	1480.6
310.11	1480.62
310.12	1480.64
310.13	1480.66
310.14	1480.67
310.15	1480.69
310.16	1480.71
310.17	1480.73
310.18	1480.74
310.19	1480.76
310.2	1480.78
310.21	1480.8
310.22	1480.81
310.23	1480.83
310.24	1480.85
310.25	1480.87
310.26	1480.88
310.27	1480.9
310.28	1480.92
310.29	1480.94
310.3	1480.95
310.31	1480.97
310.32	1480.99
310.33	1481.01
310.34	1481.02
310.35	1481.04
310.36	1481.06
310.37	1481.08
310.38	1481.09
310.39	1481.11
310.4	1481.13
310.41	1481.15
310.42	1481.16
310.43	1481.18
310.44	1481.2
310.45	1481.22
310.46	1481.23
310.47	1481.25
310.48	1481.27
310.49	1481.29
310.5	1481.3
310.51	1481.32
310.52	1481.34
310.53	1481.36
310.54	1481.38
310.55	1481.39
310.56	1481.41
310.57	1481.43
310.58	1481.45
310.59	1481.46
310.6	1481.48
310.61	1481.5
310.62	1481.52
310.63	1481.53
310.64	1481.55
310.65	1481.57
310.66	1481.59
310.67	1481.6
310.68	1481.62
310.69	1481.64
310.7	1481.66
310.71	1481.67
310.72	1481.69
310.73	1481.71
310.74	1481.73
310.75	1481.74
310.76	1481.76
310.77	1481.78
310.78	1481.8
310.79	1481.81
310.8	1481.83
310.81	1481.85
310.82	1481.87
310.83	1481.88
310.84	1481.9
310.85	1481.92
310.86	1481.94
310.87	1481.95
310.88	1481.97
310.89	1481.99
310.9	1482.01
310.91	1482.02
310.92	1482.04
310.93	1482.06
310.94	1482.08
310.95	1482.09
310.96	1482.11
310.97	1482.13
310.98	1482.15
310.99	1482.16
311	1482.18
311.01	1482.2
311.02	1482.22
311.03	1482.23
311.04	1482.25
311.05	1482.27
311.06	1482.29
311.07	1482.3
311.08	1482.32
311.09	1482.34
311.1	1482.36
311.11	1482.37
311.12	1482.39
311.13	1482.41
311.14	1482.43
311.15	1482.44
311.16	1482.46
311.17	1482.48
311.18	1482.5
311.19	1482.51
311.2	1482.53
311.21	1482.55
311.22	1482.57
311.23	1482.59
311.24	1482.6
311.25	1482.62
311.26	1482.64
311.27	1482.66
311.28	1482.67
311.29	1482.69
311.3	1482.71
311.31	1482.73
311.32	1482.74
311.33	1482.76
311.34	1482.78
311.35	1482.8
311.36	1482.81
311.37	1482.83
311.38	1482.85
311.39	1482.87
311.4	1482.88
311.41	1482.9
311.42	1482.92
311.43	1482.94
311.44	1482.95
311.45	1482.97
311.46	1482.99
311.47	1483.01
311.48	1483.02
311.49	1483.04
311.5	1483.06
311.51	1483.08
311.52	1483.09
311.53	1483.11
311.54	1483.13
311.55	1483.15
311.56	1483.16
311.57	1483.18
311.58	1483.2
311.59	1483.22
311.6	1483.23
311.61	1483.25
311.62	1483.27
311.63	1483.29
311.64	1483.3
311.65	1483.32
311.66	1483.34
311.67	1483.36
311.68	1483.37
311.69	1483.39
311.7	1483.41
311.71	1483.43
311.72	1483.44
311.73	1483.46
311.74	1483.48
311.75	1483.5
311.76	1483.51
311.77	1483.53
311.78	1483.55
311.79	1483.57
311.8	1483.58
311.81	1483.6
311.82	1483.62
311.83	1483.64
311.84	1483.65
311.85	1483.67
311.86	1483.69
311.87	1483.71
311.88	1483.72
311.89	1483.74
311.9	1483.76
311.91	1483.78
311.92	1483.8
311.93	1483.81
311.94	1483.83
311.95	1483.85
311.96	1483.87
311.97	1483.88
311.98	1483.9
311.99	1483.92
312	1483.94
312.01	1483.95
312.02	1483.97
312.03	1483.99
312.04	1484.01
312.05	1484.02
312.06	1484.04
312.07	1484.06
312.08	1484.08
312.09	1484.09
312.1	1484.11
312.11	1484.13
312.12	1484.15
312.13	1484.16
312.14	1484.18
312.15	1484.2
312.16	1484.22
312.17	1484.23
312.18	1484.25
312.19	1484.27
312.2	1484.29
312.21	1484.3
312.22	1484.32
312.23	1484.34
312.24	1484.36
312.25	1484.37
312.26	1484.39
312.27	1484.41
312.28	1484.43
312.29	1484.44
312.3	1484.46
312.31	1484.48
312.32	1484.5
312.33	1484.51
312.34	1484.53
312.35	1484.55
312.36	1484.57
312.37	1484.58
312.38	1484.6
312.39	1484.62
312.4	1484.64
312.41	1484.65
312.42	1484.67
312.43	1484.69
312.44	1484.71
312.45	1484.72
312.46	1484.74
312.47	1484.76
312.48	1484.78
312.49	1484.79
312.5	1484.81
312.51	1484.83
312.52	1484.85
312.53	1484.86
312.54	1484.88
312.55	1484.9
312.56	1484.92
312.57	1484.94
312.58	1484.95
312.59	1484.97
312.6	1484.99
312.61	1485.01
312.62	1485.02
312.63	1485.04
312.64	1485.06
312.65	1485.08
312.66	1485.09
312.67	1485.11
312.68	1485.13
312.69	1485.15
312.7	1485.16
312.71	1485.18
312.72	1485.2
312.73	1485.22
312.74	1485.23
312.75	1485.25
312.76	1485.27
312.77	1485.29
312.78	1485.3
312.79	1485.32
312.8	1485.34
312.81	1485.36
312.82	1485.37
312.83	1485.39
312.84	1485.41
312.85	1485.43
312.86	1485.44
312.87	1485.46
312.88	1485.48
312.89	1485.5
312.9	1485.51
312.91	1485.53
312.92	1485.55
312.93	1485.57
312.94	1485.58
312.95	1485.6
312.96	1485.62
312.97	1485.64
312.98	1485.65
312.99	1485.67
313	1485.69
313.01	1485.71
313.02	1485.72
313.03	1485.74
313.04	1485.76
313.05	1485.78
313.06	1485.79
313.07	1485.81
313.08	1485.83
313.09	1485.85
313.1	1485.86
313.11	1485.88
313.12	1485.9
313.13	1485.92
313.14	1485.93
313.15	1485.95
313.16	1485.97
313.17	1485.99
313.18	1486
313.19	1486.02
313.2	1486.04
313.21	1486.06
313.22	1486.07
313.23	1486.09
313.24	1486.11
313.25	1486.13
313.26	1486.15
313.27	1486.16
313.28	1486.18
313.29	1486.2
313.3	1486.22
313.31	1486.23
313.32	1486.25
313.33	1486.27
313.34	1486.29
313.35	1486.3
313.36	1486.32
313.37	1486.34
313.38	1486.36
313.39	1486.37
313.4	1486.39
313.41	1486.41
313.42	1486.43
313.43	1486.44
313.44	1486.46
313.45	1486.48
313.46	1486.5
313.47	1486.51
313.48	1486.53
313.49	1486.55
313.5	1486.57
313.51	1486.58
313.52	1486.6
313.53	1486.62
313.54	1486.64
313.55	1486.65
313.56	1486.67
313.57	1486.69
313.58	1486.71
313.59	1486.72
313.6	1486.74
313.61	1486.76
313.62	1486.78
313.63	1486.79
313.64	1486.81
313.65	1486.83
313.66	1486.85
313.67	1486.86
313.68	1486.88
313.69	1486.9
313.7	1486.92
313.71	1486.93
313.72	1486.95
313.73	1486.97
313.74	1486.99
313.75	1487
313.76	1487.02
313.77	1487.04
313.78	1487.06
313.79	1487.07
313.8	1487.09
313.81	1487.11
313.82	1487.13
313.83	1487.14
313.84	1487.16
313.85	1487.18
313.86	1487.2
313.87	1487.21
313.88	1487.23
313.89	1487.25
313.9	1487.27
313.91	1487.29
313.92	1487.3
313.93	1487.32
313.94	1487.34
313.95	1487.36
313.96	1487.37
313.97	1487.39
313.98	1487.41
313.99	1487.43
314	1487.44
314.01	1487.46
314.02	1487.48
314.03	1487.5
314.04	1487.51
314.05	1487.53
314.06	1487.55
314.07	1487.57
314.08	1487.58
314.09	1487.6
314.1	1487.62
314.11	1487.64
314.12	1487.65
314.13	1487.67
314.14	1487.69
314.15	1487.71
314.16	1487.72
314.17	1487.74
314.18	1487.76
314.19	1487.78
314.2	1487.79
314.21	1487.81
314.22	1487.83
314.23	1487.85
314.24	1487.86
314.25	1487.88
314.26	1487.9
314.27	1487.92
314.28	1487.93
314.29	1487.95
314.3	1487.97
314.31	1487.99
314.32	1488
314.33	1488.02
314.34	1488.04
314.35	1488.06
314.36	1488.07
314.37	1488.09
314.38	1488.11
314.39	1488.13
314.4	1488.14
314.41	1488.16
314.42	1488.18
314.43	1488.2
314.44	1488.21
314.45	1488.23
314.46	1488.25
314.47	1488.27
314.48	1488.28
314.49	1488.3
314.5	1488.32
314.51	1488.34
314.52	1488.35
314.53	1488.37
314.54	1488.39
314.55	1488.41
314.56	1488.42
314.57	1488.44
314.58	1488.46
314.59	1488.48
314.6	1488.5
314.61	1488.51
314.62	1488.53
314.63	1488.55
314.64	1488.57
314.65	1488.58
314.66	1488.6
314.67	1488.62
314.68	1488.64
314.69	1488.65
314.7	1488.67
314.71	1488.69
314.72	1488.71
314.73	1488.72
314.74	1488.74
314.75	1488.76
314.76	1488.78
314.77	1488.79
314.78	1488.81
314.79	1488.83
314.8	1488.85
314.81	1488.86
314.82	1488.88
314.83	1488.9
314.84	1488.92
314.85	1488.93
314.86	1488.95
314.87	1488.97
314.88	1488.99
314.89	1489
314.9	1489.02
314.91	1489.04
314.92	1489.06
314.93	1489.07
314.94	1489.09
314.95	1489.11
314.96	1489.13
314.97	1489.14
314.98	1489.16
314.99	1489.18
315	1489.2
315.01	1489.21
315.02	1489.23
315.03	1489.25
315.04	1489.27
315.05	1489.28
315.06	1489.3
315.07	1489.32
315.08	1489.34
315.09	1489.35
315.1	1489.37
315.11	1489.39
315.12	1489.41
315.13	1489.42
315.14	1489.44
315.15	1489.46
315.16	1489.48
315.17	1489.49
315.18	1489.51
315.19	1489.53
315.2	1489.55
315.21	1489.56
315.22	1489.58
315.23	1489.6
315.24	1489.62
315.25	1489.63
315.26	1489.65
315.27	1489.67
315.28	1489.69
315.29	1489.71
315.3	1489.72
315.31	1489.74
315.32	1489.76
315.33	1489.78
315.34	1489.79
315.35	1489.81
315.36	1489.83
315.37	1489.85
315.38	1489.86
315.39	1489.88
315.4	1489.9
315.41	1489.92
315.42	1489.93
315.43	1489.95
315.44	1489.97
315.45	1489.99
315.46	1490
315.47	1490.02
315.48	1490.04
315.49	1490.06
315.5	1490.07
315.51	1490.09
315.52	1490.11
315.53	1490.13
315.54	1490.14
315.55	1490.16
315.56	1490.18
315.57	1490.2
315.58	1490.21
315.59	1490.23
315.6	1490.25
315.61	1490.27
315.62	1490.28
315.63	1490.3
315.64	1490.32
315.65	1490.34
315.66	1490.35
315.67	1490.37
315.68	1490.39
315.69	1490.41
315.7	1490.42
315.71	1490.44
315.72	1490.46
315.73	1490.48
315.74	1490.49
315.75	1490.51
315.76	1490.53
315.77	1490.55
315.78	1490.56
315.79	1490.58
315.8	1490.6
315.81	1490.62
315.82	1490.63
315.83	1490.65
315.84	1490.67
315.85	1490.69
315.86	1490.7
315.87	1490.72
315.88	1490.74
315.89	1490.76
315.9	1490.77
315.91	1490.79
315.92	1490.81
315.93	1490.83
315.94	1490.85
315.95	1490.86
315.96	1490.88
315.97	1490.9
315.98	1490.92
315.99	1490.93
316	1490.95
316.01	1490.97
316.02	1490.99
316.03	1491
316.04	1491.02
316.05	1491.04
316.06	1491.06
316.07	1491.07
316.08	1491.09
316.09	1491.11
316.1	1491.13
316.11	1491.14
316.12	1491.16
316.13	1491.18
316.14	1491.2
316.15	1491.21
316.16	1491.23
316.17	1491.25
316.18	1491.27
316.19	1491.28
316.2	1491.3
316.21	1491.32
316.22	1491.34
316.23	1491.35
316.24	1491.37
316.25	1491.39
316.26	1491.41
316.27	1491.42
316.28	1491.44
316.29	1491.46
316.3	1491.48
316.31	1491.49
316.32	1491.51
316.33	1491.53
316.34	1491.55
316.35	1491.56
316.36	1491.58
316.37	1491.6
316.38	1491.62
316.39	1491.63
316.4	1491.65
316.41	1491.67
316.42	1491.69
316.43	1491.7
316.44	1491.72
316.45	1491.74
316.46	1491.76
316.47	1491.77
316.48	1491.79
316.49	1491.81
316.5	1491.83
316.51	1491.84
316.52	1491.86
316.53	1491.88
316.54	1491.9
316.55	1491.91
316.56	1491.93
316.57	1491.95
316.58	1491.97
316.59	1491.98
316.6	1492
316.61	1492.02
316.62	1492.04
316.63	1492.06
316.64	1492.07
316.65	1492.09
316.66	1492.11
316.67	1492.13
316.68	1492.14
316.69	1492.16
316.7	1492.18
316.71	1492.2
316.72	1492.21
316.73	1492.23
316.74	1492.25
316.75	1492.27
316.76	1492.28
316.77	1492.3
316.78	1492.32
316.79	1492.34
316.8	1492.35
316.81	1492.37
316.82	1492.39
316.83	1492.41
316.84	1492.42
316.85	1492.44
316.86	1492.46
316.87	1492.48
316.88	1492.49
316.89	1492.51
316.9	1492.53
316.91	1492.55
316.92	1492.56
316.93	1492.58
316.94	1492.6
316.95	1492.62
316.96	1492.63
316.97	1492.65
316.98	1492.67
316.99	1492.69
317	1492.7
317.01	1492.72
317.02	1492.74
317.03	1492.76
317.04	1492.77
317.05	1492.79
317.06	1492.81
317.07	1492.83
317.08	1492.84
317.09	1492.86
317.1	1492.88
317.11	1492.9
317.12	1492.91
317.13	1492.93
317.14	1492.95
317.15	1492.97
317.16	1492.98
317.17	1493
317.18	1493.02
317.19	1493.04
317.2	1493.05
317.21	1493.07
317.22	1493.09
317.23	1493.11
317.24	1493.12
317.25	1493.14
317.26	1493.16
317.27	1493.18
317.28	1493.19
317.29	1493.21
317.3	1493.23
317.31	1493.25
317.32	1493.27
317.33	1493.28
317.34	1493.3
317.35	1493.32
317.36	1493.34
317.37	1493.35
317.38	1493.37
317.39	1493.39
317.4	1493.41
317.41	1493.42
317.42	1493.44
317.43	1493.46
317.44	1493.48
317.45	1493.49
317.46	1493.51
317.47	1493.53
317.48	1493.55
317.49	1493.56
317.5	1493.58
317.51	1493.6
317.52	1493.62
317.53	1493.63
317.54	1493.65
317.55	1493.67
317.56	1493.69
317.57	1493.7
317.58	1493.72
317.59	1493.74
317.6	1493.76
317.61	1493.77
317.62	1493.79
317.63	1493.81
317.64	1493.83
317.65	1493.84
317.66	1493.86
317.67	1493.88
317.68	1493.9
317.69	1493.91
317.7	1493.93
317.71	1493.95
317.72	1493.97
317.73	1493.98
317.74	1494
317.75	1494.02
317.76	1494.04
317.77	1494.05
317.78	1494.07
317.79	1494.09
317.8	1494.11
317.81	1494.12
317.82	1494.14
317.83	1494.16
317.84	1494.18
317.85	1494.19
317.86	1494.21
317.87	1494.23
317.88	1494.25
317.89	1494.26
317.9	1494.28
317.91	1494.3
317.92	1494.32
317.93	1494.33
317.94	1494.35
317.95	1494.37
317.96	1494.39
317.97	1494.41
317.98	1494.42
317.99	1494.44
318	1494.46
318.01	1494.48
318.02	1494.49
318.03	1494.51
318.04	1494.53
318.05	1494.55
318.06	1494.56
318.07	1494.58
318.08	1494.6
318.09	1494.62
318.1	1494.63
318.11	1494.65
318.12	1494.67
318.13	1494.69
318.14	1494.7
318.15	1494.72
318.16	1494.74
318.17	1494.76
318.18	1494.77
318.19	1494.79
318.2	1494.81
318.21	1494.83
318.22	1494.84
318.23	1494.86
318.24	1494.88
318.25	1494.9
318.26	1494.91
318.27	1494.93
318.28	1494.95
318.29	1494.97
318.3	1494.98
318.31	1495
318.32	1495.02
318.33	1495.04
318.34	1495.05
318.35	1495.07
318.36	1495.09
318.37	1495.11
318.38	1495.12
318.39	1495.14
318.4	1495.16
318.41	1495.18
318.42	1495.19
318.43	1495.21
318.44	1495.23
318.45	1495.25
318.46	1495.26
318.47	1495.28
318.48	1495.3
318.49	1495.32
318.5	1495.33
318.51	1495.35
318.52	1495.37
318.53	1495.39
318.54	1495.4
318.55	1495.42
318.56	1495.44
318.57	1495.46
318.58	1495.47
318.59	1495.49
318.6	1495.51
318.61	1495.53
318.62	1495.54
318.63	1495.56
318.64	1495.58
318.65	1495.6
318.66	1495.62
318.67	1495.63
318.68	1495.65
318.69	1495.67
318.7	1495.69
318.71	1495.7
318.72	1495.72
318.73	1495.74
318.74	1495.76
318.75	1495.77
318.76	1495.79
318.77	1495.81
318.78	1495.83
318.79	1495.84
318.8	1495.86
318.81	1495.88
318.82	1495.9
318.83	1495.91
318.84	1495.93
318.85	1495.95
318.86	1495.97
318.87	1495.98
318.88	1496
318.89	1496.02
318.9	1496.04
318.91	1496.05
318.92	1496.07
318.93	1496.09
318.94	1496.11
318.95	1496.12
318.96	1496.14
318.97	1496.16
318.98	1496.18
318.99	1496.19
319	1496.21
319.01	1496.23
319.02	1496.25
319.03	1496.26
319.04	1496.28
319.05	1496.3
319.06	1496.32
319.07	1496.33
319.08	1496.35
319.09	1496.37
319.1	1496.39
319.11	1496.4
319.12	1496.42
319.13	1496.44
319.14	1496.46
319.15	1496.47
319.16	1496.49
319.17	1496.51
319.18	1496.53
319.19	1496.54
319.2	1496.56
319.21	1496.58
319.22	1496.6
319.23	1496.61
319.24	1496.63
319.25	1496.65
319.26	1496.67
319.27	1496.68
319.28	1496.7
319.29	1496.72
319.3	1496.74
319.31	1496.76
319.32	1496.77
319.33	1496.79
319.34	1496.81
319.35	1496.83
319.36	1496.84
319.37	1496.86
319.38	1496.88
319.39	1496.9
319.4	1496.91
319.41	1496.93
319.42	1496.95
319.43	1496.97
319.44	1496.98
319.45	1497
319.46	1497.02
319.47	1497.04
319.48	1497.05
319.49	1497.07
319.5	1497.09
319.51	1497.11
319.52	1497.12
319.53	1497.14
319.54	1497.16
319.55	1497.18
319.56	1497.19
319.57	1497.21
319.58	1497.23
319.59	1497.25
319.6	1497.26
319.61	1497.28
319.62	1497.3
319.63	1497.32
319.64	1497.33
319.65	1497.35
319.66	1497.37
319.67	1497.39
319.68	1497.4
319.69	1497.42
319.7	1497.44
319.71	1497.46
319.72	1497.47
319.73	1497.49
319.74	1497.51
319.75	1497.53
319.76	1497.54
319.77	1497.56
319.78	1497.58
319.79	1497.6
319.8	1497.61
319.81	1497.63
319.82	1497.65
319.83	1497.67
319.84	1497.68
319.85	1497.7
319.86	1497.72
319.87	1497.74
319.88	1497.75
319.89	1497.77
319.9	1497.79
319.91	1497.81
319.92	1497.82
319.93	1497.84
319.94	1497.86
319.95	1497.88
319.96	1497.89
319.97	1497.91
319.98	1497.93
319.99	1497.95
320	1497.96
320.01	1497.96
320.02	1497.96
320.03	1497.96
320.04	1497.96
320.05	1497.96
320.06	1497.97
320.07	1497.97
320.08	1497.97
320.09	1497.97
320.1	1497.97
320.11	1497.97
320.12	1497.97
320.13	1497.98
320.14	1497.98
320.15	1497.98
320.16	1497.98
320.17	1497.98
320.18	1497.98
320.19	1497.98
320.2	1497.99
320.21	1497.99
320.22	1497.99
320.23	1497.99
320.24	1497.99
320.25	1497.99
320.26	1498
320.27	1498
320.28	1498
320.29	1498
320.3	1498
320.31	1498
320.32	1498
320.33	1498.01
320.34	1498.01
320.35	1498.01
320.36	1498.01
320.37	1498.01
320.38	1498.01
320.39	1498.01
320.4	1498.02
320.41	1498.02
320.42	1498.02
320.43	1498.02
320.44	1498.02
320.45	1498.02
320.46	1498.02
320.47	1498.03
320.48	1498.03
320.49	1498.03
320.5	1498.03
320.51	1498.03
320.52	1498.03
320.53	1498.03
320.54	1498.04
320.55	1498.04
320.56	1498.04
320.57	1498.04
320.58	1498.04
320.59	1498.04
320.6	1498.04
320.61	1498.05
320.62	1498.05
320.63	1498.05
320.64	1498.05
320.65	1498.05
320.66	1498.05
320.67	1498.05
320.68	1498.06
320.69	1498.06
320.7	1498.06
320.71	1498.06
320.72	1498.06
320.73	1498.06
320.74	1498.07
320.75	1498.07
320.76	1498.07
320.77	1498.07
320.78	1498.07
320.79	1498.07
320.8	1498.07
320.81	1498.08
320.82	1498.08
320.83	1498.08
320.84	1498.08
320.85	1498.08
320.86	1498.08
320.87	1498.08
320.88	1498.09
320.89	1498.09
320.9	1498.09
320.91	1498.09
320.92	1498.09
320.93	1498.09
320.94	1498.09
320.95	1498.1
320.96	1498.1
320.97	1498.1
320.98	1498.1
320.99	1498.1
321	1498.1
321.01	1498.1
321.02	1498.11
321.03	1498.11
321.04	1498.11
321.05	1498.11
321.06	1498.11
321.07	1498.11
321.08	1498.11
321.09	1498.12
321.1	1498.12
321.11	1498.12
321.12	1498.12
321.13	1498.12
321.14	1498.12
321.15	1498.13
321.16	1498.13
321.17	1498.13
321.18	1498.13
321.19	1498.13
321.2	1498.13
321.21	1498.13
321.22	1498.14
321.23	1498.14
321.24	1498.14
321.25	1498.14
321.26	1498.14
321.27	1498.14
321.28	1498.14
321.29	1498.15
321.3	1498.15
321.31	1498.15
321.32	1498.15
321.33	1498.15
321.34	1498.15
321.35	1498.15
321.36	1498.16
321.37	1498.16
321.38	1498.16
321.39	1498.16
321.4	1498.16
321.41	1498.16
321.42	1498.16
321.43	1498.17
321.44	1498.17
321.45	1498.17
321.46	1498.17
321.47	1498.17
321.48	1498.17
321.49	1498.17
321.5	1498.18
321.51	1498.18
321.52	1498.18
321.53	1498.18
321.54	1498.18
321.55	1498.18
321.56	1498.19
321.57	1498.19
321.58	1498.19
321.59	1498.19
321.6	1498.19
321.61	1498.19
321.62	1498.19
321.63	1498.2
321.64	1498.2
321.65	1498.2
321.66	1498.2
321.67	1498.2
321.68	1498.2
321.69	1498.2
321.7	1498.21
321.71	1498.21
321.72	1498.21
321.73	1498.21
321.74	1498.21
321.75	1498.21
321.76	1498.21
321.77	1498.22
321.78	1498.22
321.79	1498.22
321.8	1498.22
321.81	1498.22
321.82	1498.22
321.83	1498.22
321.84	1498.23
321.85	1498.23
321.86	1498.23
321.87	1498.23
321.88	1498.23
321.89	1498.23
321.9	1498.23
321.91	1498.24
321.92	1498.24
321.93	1498.24
321.94	1498.24
321.95	1498.24
321.96	1498.24
321.97	1498.24
321.98	1498.25
321.99	1498.25
322	1498.25
322.01	1498.25
322.02	1498.25
322.03	1498.25
322.04	1498.26
322.05	1498.26
322.06	1498.26
322.07	1498.26
322.08	1498.26
322.09	1498.26
322.1	1498.26
322.11	1498.27
322.12	1498.27
322.13	1498.27
322.14	1498.27
322.15	1498.27
322.16	1498.27
322.17	1498.27
322.18	1498.28
322.19	1498.28
322.2	1498.28
322.21	1498.28
322.22	1498.28
322.23	1498.28
322.24	1498.28
322.25	1498.29
322.26	1498.29
322.27	1498.29
322.28	1498.29
322.29	1498.29
322.3	1498.29
322.31	1498.29
322.32	1498.3
322.33	1498.3
322.34	1498.3
322.35	1498.3
322.36	1498.3
322.37	1498.3
322.38	1498.3
322.39	1498.31
322.4	1498.31
322.41	1498.31
322.42	1498.31
322.43	1498.31
322.44	1498.31
322.45	1498.32
322.46	1498.32
322.47	1498.32
322.48	1498.32
322.49	1498.32
322.5	1498.32
322.51	1498.32
322.52	1498.33
322.53	1498.33
322.54	1498.33
322.55	1498.33
322.56	1498.33
322.57	1498.33
322.58	1498.33
322.59	1498.34
322.6	1498.34
322.61	1498.34
322.62	1498.34
322.63	1498.34
322.64	1498.34
322.65	1498.34
322.66	1498.35
322.67	1498.35
322.68	1498.35
322.69	1498.35
322.7	1498.35
322.71	1498.35
322.72	1498.35
322.73	1498.36
322.74	1498.36
322.75	1498.36
322.76	1498.36
322.77	1498.36
322.78	1498.36
322.79	1498.36
322.8	1498.37
322.81	1498.37
322.82	1498.37
322.83	1498.37
322.84	1498.37
322.85	1498.37
322.86	1498.38
322.87	1498.38
322.88	1498.38
322.89	1498.38
322.9	1498.38
322.91	1498.38
322.92	1498.38
322.93	1498.39
322.94	1498.39
322.95	1498.39
322.96	1498.39
322.97	1498.39
322.98	1498.39
322.99	1498.39
323	1498.4
323.01	1498.4
323.02	1498.4
323.03	1498.4
323.04	1498.4
323.05	1498.4
323.06	1498.4
323.07	1498.41
323.08	1498.41
323.09	1498.41
323.1	1498.41
323.11	1498.41
323.12	1498.41
323.13	1498.41
323.14	1498.42
323.15	1498.42
323.16	1498.42
323.17	1498.42
323.18	1498.42
323.19	1498.42
323.2	1498.42
323.21	1498.43
323.22	1498.43
323.23	1498.43
323.24	1498.43
323.25	1498.43
323.26	1498.43
323.27	1498.43
323.28	1498.44
323.29	1498.44
323.3	1498.44
323.31	1498.44
323.32	1498.44
323.33	1498.44
323.34	1498.45
323.35	1498.45
323.36	1498.45
323.37	1498.45
323.38	1498.45
323.39	1498.45
323.4	1498.45
323.41	1498.46
323.42	1498.46
323.43	1498.46
323.44	1498.46
323.45	1498.46
323.46	1498.46
323.47	1498.46
323.48	1498.47
323.49	1498.47
323.5	1498.47
323.51	1498.47
323.52	1498.47
323.53	1498.47
323.54	1498.47
323.55	1498.48
323.56	1498.48
323.57	1498.48
323.58	1498.48
323.59	1498.48
323.6	1498.48
323.61	1498.48
323.62	1498.49
323.63	1498.49
323.64	1498.49
323.65	1498.49
323.66	1498.49
323.67	1498.49
323.68	1498.49
323.69	1498.5
323.7	1498.5
323.71	1498.5
323.72	1498.5
323.73	1498.5
323.74	1498.5
323.75	1498.51
323.76	1498.51
323.77	1498.51
323.78	1498.51
323.79	1498.51
323.8	1498.51
323.81	1498.51
323.82	1498.52
323.83	1498.52
323.84	1498.52
323.85	1498.52
323.86	1498.52
323.87	1498.52
323.88	1498.52
323.89	1498.53
323.9	1498.53
323.91	1498.53
323.92	1498.53
323.93	1498.53
323.94	1498.53
323.95	1498.53
323.96	1498.54
323.97	1498.54
323.98	1498.54
323.99	1498.54
324	1498.54
324.01	1498.54
324.02	1498.54
324.03	1498.55
324.04	1498.55
324.05	1498.55
324.06	1498.55
324.07	1498.55
324.08	1498.55
324.09	1498.55
324.1	1498.56
324.11	1498.56
324.12	1498.56
324.13	1498.56
324.14	1498.56
324.15	1498.56
324.16	1498.56
324.17	1498.57
324.18	1498.57
324.19	1498.57
324.2	1498.57
324.21	1498.57
324.22	1498.57
324.23	1498.58
324.24	1498.58
324.25	1498.58
324.26	1498.58
324.27	1498.58
324.28	1498.58
324.29	1498.58
324.3	1498.59
324.31	1498.59
324.32	1498.59
324.33	1498.59
324.34	1498.59
324.35	1498.59
324.36	1498.59
324.37	1498.6
324.38	1498.6
324.39	1498.6
324.4	1498.6
324.41	1498.6
324.42	1498.6
324.43	1498.6
324.44	1498.61
324.45	1498.61
324.46	1498.61
324.47	1498.61
324.48	1498.61
324.49	1498.61
324.5	1498.61
324.51	1498.62
324.52	1498.62
324.53	1498.62
324.54	1498.62
324.55	1498.62
324.56	1498.62
324.57	1498.62
324.58	1498.63
324.59	1498.63
324.6	1498.63
324.61	1498.63
324.62	1498.63
324.63	1498.63
324.64	1498.64
324.65	1498.64
324.66	1498.64
324.67	1498.64
324.68	1498.64
324.69	1498.64
324.7	1498.64
324.71	1498.65
324.72	1498.65
324.73	1498.65
324.74	1498.65
324.75	1498.65
324.76	1498.65
324.77	1498.65
324.78	1498.66
324.79	1498.66
324.8	1498.66
324.81	1498.66
324.82	1498.66
324.83	1498.66
324.84	1498.66
324.85	1498.67
324.86	1498.67
324.87	1498.67
324.88	1498.67
324.89	1498.67
324.9	1498.67
324.91	1498.67
324.92	1498.68
324.93	1498.68
324.94	1498.68
324.95	1498.68
324.96	1498.68
324.97	1498.68
324.98	1498.68
324.99	1498.69
325	1498.69
325.01	1498.69
325.02	1498.69
325.03	1498.69
325.04	1498.69
325.05	1498.7
325.06	1498.7
325.07	1498.7
325.08	1498.7
325.09	1498.7
325.1	1498.7
325.11	1498.7
325.12	1498.71
325.13	1498.71
325.14	1498.71
325.15	1498.71
325.16	1498.71
325.17	1498.71
325.18	1498.71
325.19	1498.72
325.2	1498.72
325.21	1498.72
325.22	1498.72
325.23	1498.72
325.24	1498.72
325.25	1498.72
325.26	1498.73
325.27	1498.73
325.28	1498.73
325.29	1498.73
325.3	1498.73
325.31	1498.73
325.32	1498.73
325.33	1498.74
325.34	1498.74
325.35	1498.74
325.36	1498.74
325.37	1498.74
325.38	1498.74
325.39	1498.74
325.4	1498.75
325.41	1498.75
325.42	1498.75
325.43	1498.75
325.44	1498.75
325.45	1498.75
325.46	1498.75
325.47	1498.76
325.48	1498.76
325.49	1498.76
325.5	1498.76
325.51	1498.76
325.52	1498.76
325.53	1498.77
325.54	1498.77
325.55	1498.77
325.56	1498.77
325.57	1498.77
325.58	1498.77
325.59	1498.77
325.6	1498.78
325.61	1498.78
325.62	1498.78
325.63	1498.78
325.64	1498.78
325.65	1498.78
325.66	1498.78
325.67	1498.79
325.68	1498.79
325.69	1498.79
325.7	1498.79
325.71	1498.79
325.72	1498.79
325.73	1498.79
325.74	1498.8
325.75	1498.8
325.76	1498.8
325.77	1498.8
325.78	1498.8
325.79	1498.8
325.8	1498.8
325.81	1498.81
325.82	1498.81
325.83	1498.81
325.84	1498.81
325.85	1498.81
325.86	1498.81
325.87	1498.81
325.88	1498.82
325.89	1498.82
325.9	1498.82
325.91	1498.82
325.92	1498.82
325.93	1498.82
325.94	1498.83
325.95	1498.83
325.96	1498.83
325.97	1498.83
325.98	1498.83
325.99	1498.83
326	1498.83
326.01	1498.84
326.02	1498.84
326.03	1498.84
326.04	1498.84
326.05	1498.84
326.06	1498.84
326.07	1498.84
326.08	1498.85
326.09	1498.85
326.1	1498.85
326.11	1498.85
326.12	1498.85
326.13	1498.85
326.14	1498.85
326.15	1498.86
326.16	1498.86
326.17	1498.86
326.18	1498.86
326.19	1498.86
326.2	1498.86
326.21	1498.86
326.22	1498.87
326.23	1498.87
326.24	1498.87
326.25	1498.87
326.26	1498.87
326.27	1498.87
326.28	1498.87
326.29	1498.88
326.3	1498.88
326.31	1498.88
326.32	1498.88
326.33	1498.88
326.34	1498.88
326.35	1498.89
326.36	1498.89
326.37	1498.89
326.38	1498.89
326.39	1498.89
326.4	1498.89
326.41	1498.89
326.42	1498.9
326.43	1498.9
326.44	1498.9
326.45	1498.9
326.46	1498.9
326.47	1498.9
326.48	1498.9
326.49	1498.91
326.5	1498.91
326.51	1498.91
326.52	1498.91
326.53	1498.91
326.54	1498.91
326.55	1498.91
326.56	1498.92
326.57	1498.92
326.58	1498.92
326.59	1498.92
326.6	1498.92
326.61	1498.92
326.62	1498.92
326.63	1498.93
326.64	1498.93
326.65	1498.93
326.66	1498.93
326.67	1498.93
326.68	1498.93
326.69	1498.93
326.7	1498.94
326.71	1498.94
326.72	1498.94
326.73	1498.94
326.74	1498.94
326.75	1498.94
326.76	1498.94
326.77	1498.95
326.78	1498.95
326.79	1498.95
326.8	1498.95
326.81	1498.95
326.82	1498.95
326.83	1498.96
326.84	1498.96
326.85	1498.96
326.86	1498.96
326.87	1498.96
326.88	1498.96
326.89	1498.96
326.9	1498.97
326.91	1498.97
326.92	1498.97
326.93	1498.97
326.94	1498.97
326.95	1498.97
326.96	1498.97
326.97	1498.98
326.98	1498.98
326.99	1498.98
327	1498.98
327.01	1498.98
327.02	1498.98
327.03	1498.98
327.04	1498.99
327.05	1498.99
327.06	1498.99
327.07	1498.99
327.08	1498.99
327.09	1498.99
327.1	1498.99
327.11	1499
327.12	1499
327.13	1499
327.14	1499
327.15	1499
327.16	1499
327.17	1499
327.18	1499.01
327.19	1499.01
327.2	1499.01
327.21	1499.01
327.22	1499.01
327.23	1499.01
327.24	1499.02
327.25	1499.02
327.26	1499.02
327.27	1499.02
327.28	1499.02
327.29	1499.02
327.3	1499.02
327.31	1499.03
327.32	1499.03
327.33	1499.03
327.34	1499.03
327.35	1499.03
327.36	1499.03
327.37	1499.03
327.38	1499.04
327.39	1499.04
327.4	1499.04
327.41	1499.04
327.42	1499.04
327.43	1499.04
327.44	1499.04
327.45	1499.05
327.46	1499.05
327.47	1499.05
327.48	1499.05
327.49	1499.05
327.5	1499.05
327.51	1499.05
327.52	1499.06
327.53	1499.06
327.54	1499.06
327.55	1499.06
327.56	1499.06
327.57	1499.06
327.58	1499.06
327.59	1499.07
327.6	1499.07
327.61	1499.07
327.62	1499.07
327.63	1499.07
327.64	1499.07
327.65	1499.08
327.66	1499.08
327.67	1499.08
327.68	1499.08
327.69	1499.08
327.7	1499.08
327.71	1499.08
327.72	1499.09
327.73	1499.09
327.74	1499.09
327.75	1499.09
327.76	1499.09
327.77	1499.09
327.78	1499.09
327.79	1499.1
327.8	1499.1
327.81	1499.1
327.82	1499.1
327.83	1499.1
327.84	1499.1
327.85	1499.1
327.86	1499.11
327.87	1499.11
327.88	1499.11
327.89	1499.11
327.9	1499.11
327.91	1499.11
327.92	1499.11
327.93	1499.12
327.94	1499.12
327.95	1499.12
327.96	1499.12
327.97	1499.12
327.98	1499.12
327.99	1499.12
328	1499.13
328.01	1499.13
328.02	1499.13
328.03	1499.13
328.04	1499.13
328.05	1499.13
328.06	1499.13
328.07	1499.14
328.08	1499.14
328.09	1499.14
328.1	1499.14
328.11	1499.14
328.12	1499.14
328.13	1499.15
328.14	1499.15
328.15	1499.15
328.16	1499.15
328.17	1499.15
328.18	1499.15
328.19	1499.15
328.2	1499.16
328.21	1499.16
328.22	1499.16
328.23	1499.16
328.24	1499.16
328.25	1499.16
328.26	1499.16
328.27	1499.17
328.28	1499.17
328.29	1499.17
328.3	1499.17
328.31	1499.17
328.32	1499.17
328.33	1499.17
328.34	1499.18
328.35	1499.18
328.36	1499.18
328.37	1499.18
328.38	1499.18
328.39	1499.18
328.4	1499.18
328.41	1499.19
328.42	1499.19
328.43	1499.19
328.44	1499.19
328.45	1499.19
328.46	1499.19
328.47	1499.19
328.48	1499.2
328.49	1499.2
328.5	1499.2
328.51	1499.2
328.52	1499.2
328.53	1499.2
328.54	1499.21
328.55	1499.21
328.56	1499.21
328.57	1499.21
328.58	1499.21
328.59	1499.21
328.6	1499.21
328.61	1499.22
328.62	1499.22
328.63	1499.22
328.64	1499.22
328.65	1499.22
328.66	1499.22
328.67	1499.22
328.68	1499.23
328.69	1499.23
328.7	1499.23
328.71	1499.23
328.72	1499.23
328.73	1499.23
328.74	1499.23
328.75	1499.24
328.76	1499.24
328.77	1499.24
328.78	1499.24
328.79	1499.24
328.8	1499.24
328.81	1499.24
328.82	1499.25
328.83	1499.25
328.84	1499.25
328.85	1499.25
328.86	1499.25
328.87	1499.25
328.88	1499.25
328.89	1499.26
328.9	1499.26
328.91	1499.26
328.92	1499.26
328.93	1499.26
328.94	1499.26
328.95	1499.27
328.96	1499.27
328.97	1499.27
328.98	1499.27
328.99	1499.27
329	1499.27
329.01	1499.27
329.02	1499.28
329.03	1499.28
329.04	1499.28
329.05	1499.28
329.06	1499.28
329.07	1499.28
329.08	1499.28
329.09	1499.29
329.1	1499.29
329.11	1499.29
329.12	1499.29
329.13	1499.29
329.14	1499.29
329.15	1499.29
329.16	1499.3
329.17	1499.3
329.18	1499.3
329.19	1499.3
329.2	1499.3
329.21	1499.3
329.22	1499.3
329.23	1499.31
329.24	1499.31
329.25	1499.31
329.26	1499.31
329.27	1499.31
329.28	1499.31
329.29	1499.31
329.3	1499.32
329.31	1499.32
329.32	1499.32
329.33	1499.32
329.34	1499.32
329.35	1499.32
329.36	1499.32
329.37	1499.33
329.38	1499.33
329.39	1499.33
329.4	1499.33
329.41	1499.33
329.42	1499.33
329.43	1499.34
329.44	1499.34
329.45	1499.34
329.46	1499.34
329.47	1499.34
329.48	1499.34
329.49	1499.34
329.5	1499.35
329.51	1499.35
329.52	1499.35
329.53	1499.35
329.54	1499.35
329.55	1499.35
329.56	1499.35
329.57	1499.36
329.58	1499.36
329.59	1499.36
329.6	1499.36
329.61	1499.36
329.62	1499.36
329.63	1499.36
329.64	1499.37
329.65	1499.37
329.66	1499.37
329.67	1499.37
329.68	1499.37
329.69	1499.37
329.7	1499.37
329.71	1499.38
329.72	1499.38
329.73	1499.38
329.74	1499.38
329.75	1499.38
329.76	1499.38
329.77	1499.38
329.78	1499.39
329.79	1499.39
329.8	1499.39
329.81	1499.39
329.82	1499.39
329.83	1499.39
329.84	1499.4
329.85	1499.4
329.86	1499.4
329.87	1499.4
329.88	1499.4
329.89	1499.4
329.9	1499.4
329.91	1499.41
329.92	1499.41
329.93	1499.41
329.94	1499.41
329.95	1499.41
329.96	1499.41
329.97	1499.41
329.98	1499.42
329.99	1499.42
330	1499.42
330.01	1499.42
330.02	1499.42
330.03	1499.42
330.04	1499.42
330.05	1499.42
330.06	1499.41
330.07	1499.41
330.08	1499.41
330.09	1499.41
330.1	1499.41
330.11	1499.41
330.12	1499.41
330.13	1499.41
330.14	1499.41
330.15	1499.41
330.16	1499.41
330.17	1499.41
330.18	1499.41
330.19	1499.41
330.2	1499.41
330.21	1499.41
330.22	1499.41
330.23	1499.41
330.24	1499.41
330.25	1499.41
330.26	1499.4
330.27	1499.4
330.28	1499.4
330.29	1499.4
330.3	1499.4
330.31	1499.4
330.32	1499.4
330.33	1499.4
330.34	1499.4
330.35	1499.4
330.36	1499.4
330.37	1499.4
330.38	1499.4
330.39	1499.4
330.4	1499.4
330.41	1499.4
330.42	1499.4
330.43	1499.4
330.44	1499.4
330.45	1499.4
330.46	1499.4
330.47	1499.39
330.48	1499.39
330.49	1499.39
330.5	1499.39
330.51	1499.39
330.52	1499.39
330.53	1499.39
330.54	1499.39
330.55	1499.39
330.56	1499.39
330.57	1499.39
330.58	1499.39
330.59	1499.39
330.6	1499.39
330.61	1499.39
330.62	1499.39
330.63	1499.39
330.64	1499.39
330.65	1499.39
330.66	1499.39
330.67	1499.38
330.68	1499.38
330.69	1499.38
330.7	1499.38
330.71	1499.38
330.72	1499.38
330.73	1499.38
330.74	1499.38
330.75	1499.38
330.76	1499.38
330.77	1499.38
330.78	1499.38
330.79	1499.38
330.8	1499.38
330.81	1499.38
330.82	1499.38
330.83	1499.38
330.84	1499.38
330.85	1499.38
330.86	1499.38
330.87	1499.38
330.88	1499.37
330.89	1499.37
330.9	1499.37
330.91	1499.37
330.92	1499.37
330.93	1499.37
330.94	1499.37
330.95	1499.37
330.96	1499.37
330.97	1499.37
330.98	1499.37
330.99	1499.37
331	1499.37
331.01	1499.37
331.02	1499.37
331.03	1499.37
331.04	1499.37
331.05	1499.37
331.06	1499.37
331.07	1499.37
331.08	1499.36
331.09	1499.36
331.1	1499.36
331.11	1499.36
331.12	1499.36
331.13	1499.36
331.14	1499.36
331.15	1499.36
331.16	1499.36
331.17	1499.36
331.18	1499.36
331.19	1499.36
331.2	1499.36
331.21	1499.36
331.22	1499.36
331.23	1499.36
331.24	1499.36
331.25	1499.36
331.26	1499.36
331.27	1499.36
331.28	1499.36
331.29	1499.35
331.3	1499.35
331.31	1499.35
331.32	1499.35
331.33	1499.35
331.34	1499.35
331.35	1499.35
331.36	1499.35
331.37	1499.35
331.38	1499.35
331.39	1499.35
331.4	1499.35
331.41	1499.35
331.42	1499.35
331.43	1499.35
331.44	1499.35
331.45	1499.35
331.46	1499.35
331.47	1499.35
331.48	1499.35
331.49	1499.34
331.5	1499.34
331.51	1499.34
331.52	1499.34
331.53	1499.34
331.54	1499.34
331.55	1499.34
331.56	1499.34
331.57	1499.34
331.58	1499.34
331.59	1499.34
331.6	1499.34
331.61	1499.34
331.62	1499.34
331.63	1499.34
331.64	1499.34
331.65	1499.34
331.66	1499.34
331.67	1499.34
331.68	1499.34
331.69	1499.34
331.7	1499.33
331.71	1499.33
331.72	1499.33
331.73	1499.33
331.74	1499.33
331.75	1499.33
331.76	1499.33
331.77	1499.33
331.78	1499.33
331.79	1499.33
331.8	1499.33
331.81	1499.33
331.82	1499.33
331.83	1499.33
331.84	1499.33
331.85	1499.33
331.86	1499.33
331.87	1499.33
331.88	1499.33
331.89	1499.33
331.9	1499.32
331.91	1499.32
331.92	1499.32
331.93	1499.32
331.94	1499.32
331.95	1499.32
331.96	1499.32
331.97	1499.32
331.98	1499.32
331.99	1499.32
332	1499.32
332.01	1499.32
332.02	1499.32
332.03	1499.32
332.04	1499.32
332.05	1499.32
332.06	1499.32
332.07	1499.32
332.08	1499.32
332.09	1499.32
332.1	1499.32
332.11	1499.31
332.12	1499.31
332.13	1499.31
332.14	1499.31
332.15	1499.31
332.16	1499.31
332.17	1499.31
332.18	1499.31
332.19	1499.31
332.2	1499.31
332.21	1499.31
332.22	1499.31
332.23	1499.31
332.24	1499.31
332.25	1499.31
332.26	1499.31
332.27	1499.31
332.28	1499.31
332.29	1499.31
332.3	1499.31
332.31	1499.3
332.32	1499.3
332.33	1499.3
332.34	1499.3
332.35	1499.3
332.36	1499.3
332.37	1499.3
332.38	1499.3
332.39	1499.3
332.4	1499.3
332.41	1499.3
332.42	1499.3
332.43	1499.3
332.44	1499.3
332.45	1499.3
332.46	1499.3
332.47	1499.3
332.48	1499.3
332.49	1499.3
332.5	1499.3
332.51	1499.3
332.52	1499.29
332.53	1499.29
332.54	1499.29
332.55	1499.29
332.56	1499.29
332.57	1499.29
332.58	1499.29
332.59	1499.29
332.6	1499.29
332.61	1499.29
332.62	1499.29
332.63	1499.29
332.64	1499.29
332.65	1499.29
332.66	1499.29
332.67	1499.29
332.68	1499.29
332.69	1499.29
332.7	1499.29
332.71	1499.29
332.72	1499.28
332.73	1499.28
332.74	1499.28
332.75	1499.28
332.76	1499.28
332.77	1499.28
332.78	1499.28
332.79	1499.28
332.8	1499.28
332.81	1499.28
332.82	1499.28
332.83	1499.28
332.84	1499.28
332.85	1499.28
332.86	1499.28
332.87	1499.28
332.88	1499.28
332.89	1499.28
332.9	1499.28
332.91	1499.28
332.92	1499.28
332.93	1499.27
332.94	1499.27
332.95	1499.27
332.96	1499.27
332.97	1499.27
332.98	1499.27
332.99	1499.27
333	1499.27
333.01	1499.27
333.02	1499.27
333.03	1499.27
333.04	1499.27
333.05	1499.27
333.06	1499.27
333.07	1499.27
333.08	1499.27
333.09	1499.27
333.1	1499.27
333.11	1499.27
333.12	1499.27
333.13	1499.27
333.14	1499.26
333.15	1499.26
333.16	1499.26
333.17	1499.26
333.18	1499.26
333.19	1499.26
333.2	1499.26
333.21	1499.26
333.22	1499.26
333.23	1499.26
333.24	1499.26
333.25	1499.26
333.26	1499.26
333.27	1499.26
333.28	1499.26
333.29	1499.26
333.3	1499.26
333.31	1499.26
333.32	1499.26
333.33	1499.26
333.34	1499.25
333.35	1499.25
333.36	1499.25
333.37	1499.25
333.38	1499.25
333.39	1499.25
333.4	1499.25
333.41	1499.25
333.42	1499.25
333.43	1499.25
333.44	1499.25
333.45	1499.25
333.46	1499.25
333.47	1499.25
333.48	1499.25
333.49	1499.25
333.5	1499.25
333.51	1499.25
333.52	1499.25
333.53	1499.25
333.54	1499.25
333.55	1499.24
333.56	1499.24
333.57	1499.24
333.58	1499.24
333.59	1499.24
333.6	1499.24
333.61	1499.24
333.62	1499.24
333.63	1499.24
333.64	1499.24
333.65	1499.24
333.66	1499.24
333.67	1499.24
333.68	1499.24
333.69	1499.24
333.7	1499.24
333.71	1499.24
333.72	1499.24
333.73	1499.24
333.74	1499.24
333.75	1499.23
333.76	1499.23
333.77	1499.23
333.78	1499.23
333.79	1499.23
333.8	1499.23
333.81	1499.23
333.82	1499.23
333.83	1499.23
333.84	1499.23
333.85	1499.23
333.86	1499.23
333.87	1499.23
333.88	1499.23
333.89	1499.23
333.9	1499.23
333.91	1499.23
333.92	1499.23
333.93	1499.23
333.94	1499.23
333.95	1499.23
333.96	1499.22
333.97	1499.22
333.98	1499.22
333.99	1499.22
334	1499.22
334.01	1499.22
334.02	1499.22
334.03	1499.22
334.04	1499.22
334.05	1499.22
334.06	1499.22
334.07	1499.22
334.08	1499.22
334.09	1499.22
334.1	1499.22
334.11	1499.22
334.12	1499.22
334.13	1499.22
334.14	1499.22
334.15	1499.22
334.16	1499.21
334.17	1499.21
334.18	1499.21
334.19	1499.21
334.2	1499.21
334.21	1499.21
334.22	1499.21
334.23	1499.21
334.24	1499.21
334.25	1499.21
334.26	1499.21
334.27	1499.21
334.28	1499.21
334.29	1499.21
334.3	1499.21
334.31	1499.21
334.32	1499.21
334.33	1499.21
334.34	1499.21
334.35	1499.21
334.36	1499.21
334.37	1499.2
334.38	1499.2
334.39	1499.2
334.4	1499.2
334.41	1499.2
334.42	1499.2
334.43	1499.2
334.44	1499.2
334.45	1499.2
334.46	1499.2
334.47	1499.2
334.48	1499.2
334.49	1499.2
334.5	1499.2
334.51	1499.2
334.52	1499.2
334.53	1499.2
334.54	1499.2
334.55	1499.2
334.56	1499.2
334.57	1499.19
334.58	1499.19
334.59	1499.19
334.6	1499.19
334.61	1499.19
334.62	1499.19
334.63	1499.19
334.64	1499.19
334.65	1499.19
334.66	1499.19
334.67	1499.19
334.68	1499.19
334.69	1499.19
334.7	1499.19
334.71	1499.19
334.72	1499.19
334.73	1499.19
334.74	1499.19
334.75	1499.19
334.76	1499.19
334.77	1499.19
334.78	1499.18
334.79	1499.18
334.8	1499.18
334.81	1499.18
334.82	1499.18
334.83	1499.18
334.84	1499.18
334.85	1499.18
334.86	1499.18
334.87	1499.18
334.88	1499.18
334.89	1499.18
334.9	1499.18
334.91	1499.18
334.92	1499.18
334.93	1499.18
334.94	1499.18
334.95	1499.18
334.96	1499.18
334.97	1499.18
334.98	1499.17
334.99	1499.17
335	1499.17
335.01	1499.17
335.02	1499.17
335.03	1499.17
335.04	1499.17
335.05	1499.17
335.06	1499.17
335.07	1499.17
335.08	1499.17
335.09	1499.17
335.1	1499.17
335.11	1499.17
335.12	1499.17
335.13	1499.17
335.14	1499.17
335.15	1499.17
335.16	1499.17
335.17	1499.17
335.18	1499.17
335.19	1499.16
335.2	1499.16
335.21	1499.16
335.22	1499.16
335.23	1499.16
335.24	1499.16
335.25	1499.16
335.26	1499.16
335.27	1499.16
335.28	1499.16
335.29	1499.16
335.3	1499.16
335.31	1499.16
335.32	1499.16
335.33	1499.16
335.34	1499.16
335.35	1499.16
335.36	1499.16
335.37	1499.16
335.38	1499.16
335.39	1499.15
335.4	1499.15
335.41	1499.15
335.42	1499.15
335.43	1499.15
335.44	1499.15
335.45	1499.15
335.46	1499.15
335.47	1499.15
335.48	1499.15
335.49	1499.15
335.5	1499.15
335.51	1499.15
335.52	1499.15
335.53	1499.15
335.54	1499.15
335.55	1499.15
335.56	1499.15
335.57	1499.15
335.58	1499.15
335.59	1499.15
335.6	1499.14
335.61	1499.14
335.62	1499.14
335.63	1499.14
335.64	1499.14
335.65	1499.14
335.66	1499.14
335.67	1499.14
335.68	1499.14
335.69	1499.14
335.7	1499.14
335.71	1499.14
335.72	1499.14
335.73	1499.14
335.74	1499.14
335.75	1499.14
335.76	1499.14
335.77	1499.14
335.78	1499.14
335.79	1499.14
335.8	1499.13
335.81	1499.13
335.82	1499.13
335.83	1499.13
335.84	1499.13
335.85	1499.13
335.86	1499.13
335.87	1499.13
335.88	1499.13
335.89	1499.13
335.9	1499.13
335.91	1499.13
335.92	1499.13
335.93	1499.13
335.94	1499.13
335.95	1499.13
335.96	1499.13
335.97	1499.13
335.98	1499.13
335.99	1499.13
336	1499.13
336.01	1499.12
336.02	1499.12
336.03	1499.12
336.04	1499.12
336.05	1499.12
336.06	1499.12
336.07	1499.12
336.08	1499.12
336.09	1499.12
336.1	1499.12
336.11	1499.12
336.12	1499.12
336.13	1499.12
336.14	1499.12
336.15	1499.12
336.16	1499.12
336.17	1499.12
336.18	1499.12
336.19	1499.12
336.2	1499.12
336.21	1499.11
336.22	1499.11
336.23	1499.11
336.24	1499.11
336.25	1499.11
336.26	1499.11
336.27	1499.11
336.28	1499.11
336.29	1499.11
336.3	1499.11
336.31	1499.11
336.32	1499.11
336.33	1499.11
336.34	1499.11
336.35	1499.11
336.36	1499.11
336.37	1499.11
336.38	1499.11
336.39	1499.11
336.4	1499.11
336.41	1499.11
336.42	1499.1
336.43	1499.1
336.44	1499.1
336.45	1499.1
336.46	1499.1
336.47	1499.1
336.48	1499.1
336.49	1499.1
336.5	1499.1
336.51	1499.1
336.52	1499.1
336.53	1499.1
336.54	1499.1
336.55	1499.1
336.56	1499.1
336.57	1499.1
336.58	1499.1
336.59	1499.1
336.6	1499.1
336.61	1499.1
336.62	1499.09
336.63	1499.09
336.64	1499.09
336.65	1499.09
336.66	1499.09
336.67	1499.09
336.68	1499.09
336.69	1499.09
336.7	1499.09
336.71	1499.09
336.72	1499.09
336.73	1499.09
336.74	1499.09
336.75	1499.09
336.76	1499.09
336.77	1499.09
336.78	1499.09
336.79	1499.09
336.8	1499.09
336.81	1499.09
336.82	1499.09
336.83	1499.08
336.84	1499.08
336.85	1499.08
336.86	1499.08
336.87	1499.08
336.88	1499.08
336.89	1499.08
336.9	1499.08
336.91	1499.08
336.92	1499.08
336.93	1499.08
336.94	1499.08
336.95	1499.08
336.96	1499.08
336.97	1499.08
336.98	1499.08
336.99	1499.08
337	1499.08
337.01	1499.08
337.02	1499.08
337.03	1499.08
337.04	1499.07
337.05	1499.07
337.06	1499.07
337.07	1499.07
337.08	1499.07
337.09	1499.07
337.1	1499.07
337.11	1499.07
337.12	1499.07
337.13	1499.07
337.14	1499.07
337.15	1499.07
337.16	1499.07
337.17	1499.07
337.18	1499.07
337.19	1499.07
337.2	1499.07
337.21	1499.07
337.22	1499.07
337.23	1499.07
337.24	1499.06
337.25	1499.06
337.26	1499.06
337.27	1499.06
337.28	1499.06
337.29	1499.06
337.3	1499.06
337.31	1499.06
337.32	1499.06
337.33	1499.06
337.34	1499.06
337.35	1499.06
337.36	1499.06
337.37	1499.06
337.38	1499.06
337.39	1499.06
337.4	1499.06
337.41	1499.06
337.42	1499.06
337.43	1499.06
337.44	1499.06
337.45	1499.05
337.46	1499.05
337.47	1499.05
337.48	1499.05
337.49	1499.05
337.5	1499.05
337.51	1499.05
337.52	1499.05
337.53	1499.05
337.54	1499.05
337.55	1499.05
337.56	1499.05
337.57	1499.05
337.58	1499.05
337.59	1499.05
337.6	1499.05
337.61	1499.05
337.62	1499.05
337.63	1499.05
337.64	1499.05
337.65	1499.04
337.66	1499.04
337.67	1499.04
337.68	1499.04
337.69	1499.04
337.7	1499.04
337.71	1499.04
337.72	1499.04
337.73	1499.04
337.74	1499.04
337.75	1499.04
337.76	1499.04
337.77	1499.04
337.78	1499.04
337.79	1499.04
337.8	1499.04
337.81	1499.04
337.82	1499.04
337.83	1499.04
337.84	1499.04
337.85	1499.04
337.86	1499.03
337.87	1499.03
337.88	1499.03
337.89	1499.03
337.9	1499.03
337.91	1499.03
337.92	1499.03
337.93	1499.03
337.94	1499.03
337.95	1499.03
337.96	1499.03
337.97	1499.03
337.98	1499.03
337.99	1499.03
338	1499.03
338.01	1499.03
338.02	1499.03
338.03	1499.03
338.04	1499.03
338.05	1499.03
338.06	1499.02
338.07	1499.02
338.08	1499.02
338.09	1499.02
338.1	1499.02
338.11	1499.02
338.12	1499.02
338.13	1499.02
338.14	1499.02
338.15	1499.02
338.16	1499.02
338.17	1499.02
338.18	1499.02
338.19	1499.02
338.2	1499.02
338.21	1499.02
338.22	1499.02
338.23	1499.02
338.24	1499.02
338.25	1499.02
338.26	1499.02
338.27	1499.01
338.28	1499.01
338.29	1499.01
338.3	1499.01
338.31	1499.01
338.32	1499.01
338.33	1499.01
338.34	1499.01
338.35	1499.01
338.36	1499.01
338.37	1499.01
338.38	1499.01
338.39	1499.01
338.4	1499.01
338.41	1499.01
338.42	1499.01
338.43	1499.01
338.44	1499.01
338.45	1499.01
338.46	1499.01
338.47	1499
338.48	1499
338.49	1499
338.5	1499
338.51	1499
338.52	1499
338.53	1499
338.54	1499
338.55	1499
338.56	1499
338.57	1499
338.58	1499
338.59	1499
338.6	1499
338.61	1499
338.62	1499
338.63	1499
338.64	1499
338.65	1499
338.66	1499
338.67	1499
338.68	1498.99
338.69	1498.99
338.7	1498.99
338.71	1498.99
338.72	1498.99
338.73	1498.99
338.74	1498.99
338.75	1498.99
338.76	1498.99
338.77	1498.99
338.78	1498.99
338.79	1498.99
338.8	1498.99
338.81	1498.99
338.82	1498.99
338.83	1498.99
338.84	1498.99
338.85	1498.99
338.86	1498.99
338.87	1498.99
338.88	1498.98
338.89	1498.98
338.9	1498.98
338.91	1498.98
338.92	1498.98
338.93	1498.98
338.94	1498.98
338.95	1498.98
338.96	1498.98
338.97	1498.98
338.98	1498.98
338.99	1498.98
339	1498.98
339.01	1498.98
339.02	1498.98
339.03	1498.98
339.04	1498.98
339.05	1498.98
339.06	1498.98
339.07	1498.98
339.08	1498.98
339.09	1498.97
339.1	1498.97
339.11	1498.97
339.12	1498.97
339.13	1498.97
339.14	1498.97
339.15	1498.97
339.16	1498.97
339.17	1498.97
339.18	1498.97
339.19	1498.97
339.2	1498.97
339.21	1498.97
339.22	1498.97
339.23	1498.97
339.24	1498.97
339.25	1498.97
339.26	1498.97
339.27	1498.97
339.28	1498.97
339.29	1498.96
339.3	1498.96
339.31	1498.96
339.32	1498.96
339.33	1498.96
339.34	1498.96
339.35	1498.96
339.36	1498.96
339.37	1498.96
339.38	1498.96
339.39	1498.96
339.4	1498.96
339.41	1498.96
339.42	1498.96
339.43	1498.96
339.44	1498.96
339.45	1498.96
339.46	1498.96
339.47	1498.96
339.48	1498.96
339.49	1498.96
339.5	1498.95
339.51	1498.95
339.52	1498.95
339.53	1498.95
339.54	1498.95
339.55	1498.95
339.56	1498.95
339.57	1498.95
339.58	1498.95
339.59	1498.95
339.6	1498.95
339.61	1498.95
339.62	1498.95
339.63	1498.95
339.64	1498.95
339.65	1498.95
339.66	1498.95
339.67	1498.95
339.68	1498.95
339.69	1498.95
339.7	1498.94
339.71	1498.94
339.72	1498.94
339.73	1498.94
339.74	1498.94
339.75	1498.94
339.76	1498.94
339.77	1498.94
339.78	1498.94
339.79	1498.94
339.8	1498.94
339.81	1498.94
339.82	1498.94
339.83	1498.94
339.84	1498.94
339.85	1498.94
339.86	1498.94
339.87	1498.94
339.88	1498.94
339.89	1498.94
339.9	1498.94
339.91	1498.93
339.92	1498.93
339.93	1498.93
339.94	1498.93
339.95	1498.93
339.96	1498.93
339.97	1498.93
339.98	1498.93
339.99	1498.93
340	1498.93
340.01	1498.94
340.02	1498.94
340.03	1498.95
340.04	1498.95
340.05	1498.96
340.06	1498.96
340.07	1498.97
340.08	1498.97
340.09	1498.98
340.1	1498.98
340.11	1498.99
340.12	1498.99
340.13	1499
340.14	1499
340.15	1499.01
340.16	1499.01
340.17	1499.02
340.18	1499.02
340.19	1499.03
340.2	1499.03
340.21	1499.04
340.22	1499.04
340.23	1499.05
340.24	1499.05
340.25	1499.05
340.26	1499.06
340.27	1499.06
340.28	1499.07
340.29	1499.07
340.3	1499.08
340.31	1499.08
340.32	1499.09
340.33	1499.09
340.34	1499.1
340.35	1499.1
340.36	1499.11
340.37	1499.11
340.38	1499.12
340.39	1499.12
340.4	1499.13
340.41	1499.13
340.42	1499.14
340.43	1499.14
340.44	1499.15
340.45	1499.15
340.46	1499.16
340.47	1499.16
340.48	1499.17
340.49	1499.17
340.5	1499.18
340.51	1499.18
340.52	1499.19
340.53	1499.19
340.54	1499.2
340.55	1499.2
340.56	1499.21
340.57	1499.21
340.58	1499.22
340.59	1499.22
340.6	1499.23
340.61	1499.23
340.62	1499.24
340.63	1499.24
340.64	1499.24
340.65	1499.25
340.66	1499.25
340.67	1499.26
340.68	1499.26
340.69	1499.27
340.7	1499.27
340.71	1499.28
340.72	1499.28
340.73	1499.29
340.74	1499.29
340.75	1499.3
340.76	1499.3
340.77	1499.31
340.78	1499.31
340.79	1499.32
340.8	1499.32
340.81	1499.33
340.82	1499.33
340.83	1499.34
340.84	1499.34
340.85	1499.35
340.86	1499.35
340.87	1499.36
340.88	1499.36
340.89	1499.37
340.9	1499.37
340.91	1499.38
340.92	1499.38
340.93	1499.39
340.94	1499.39
340.95	1499.4
340.96	1499.4
340.97	1499.41
340.98	1499.41
340.99	1499.42
341	1499.42
341.01	1499.43
341.02	1499.43
341.03	1499.43
341.04	1499.44
341.05	1499.44
341.06	1499.45
341.07	1499.45
341.08	1499.46
341.09	1499.46
341.1	1499.47
341.11	1499.47
341.12	1499.48
341.13	1499.48
341.14	1499.49
341.15	1499.49
341.16	1499.5
341.17	1499.5
341.18	1499.51
341.19	1499.51
341.2	1499.52
341.21	1499.52
341.22	1499.53
341.23	1499.53
341.24	1499.54
341.25	1499.54
341.26	1499.55
341.27	1499.55
341.28	1499.56
341.29	1499.56
341.3	1499.57
341.31	1499.57
341.32	1499.58
341.33	1499.58
341.34	1499.59
341.35	1499.59
341.36	1499.6
341.37	1499.6
341.38	1499.61
341.39	1499.61
341.4	1499.62
341.41	1499.62
341.42	1499.62
341.43	1499.63
341.44	1499.63
341.45	1499.64
341.46	1499.64
341.47	1499.65
341.48	1499.65
341.49	1499.66
341.5	1499.66
341.51	1499.67
341.52	1499.67
341.53	1499.68
341.54	1499.68
341.55	1499.69
341.56	1499.69
341.57	1499.7
341.58	1499.7
341.59	1499.71
341.6	1499.71
341.61	1499.72
341.62	1499.72
341.63	1499.73
341.64	1499.73
341.65	1499.74
341.66	1499.74
341.67	1499.75
341.68	1499.75
341.69	1499.76
341.7	1499.76
341.71	1499.77
341.72	1499.77
341.73	1499.78
341.74	1499.78
341.75	1499.79
341.76	1499.79
341.77	1499.8
341.78	1499.8
341.79	1499.81
341.8	1499.81
341.81	1499.81
341.82	1499.82
341.83	1499.82
341.84	1499.83
341.85	1499.83
341.86	1499.84
341.87	1499.84
341.88	1499.85
341.89	1499.85
341.9	1499.86
341.91	1499.86
341.92	1499.87
341.93	1499.87
341.94	1499.88
341.95	1499.88
341.96	1499.89
341.97	1499.89
341.98	1499.9
341.99	1499.9
342	1499.91
342.01	1499.91
342.02	1499.92
342.03	1499.92
342.04	1499.93
342.05	1499.93
342.06	1499.94
342.07	1499.94
342.08	1499.95
342.09	1499.95
342.1	1499.96
342.11	1499.96
342.12	1499.97
342.13	1499.97
342.14	1499.98
342.15	1499.98
342.16	1499.99
342.17	1499.99
342.18	1499.99
342.19	1500
342.2	1500
342.21	1500.01
342.22	1500.01
342.23	1500.02
342.24	1500.02
342.25	1500.03
342.26	1500.03
342.27	1500.04
342.28	1500.04
342.29	1500.05
342.3	1500.05
342.31	1500.06
342.32	1500.06
342.33	1500.07
342.34	1500.07
342.35	1500.08
342.36	1500.08
342.37	1500.09
342.38	1500.09
342.39	1500.1
342.4	1500.1
342.41	1500.11
342.42	1500.11
342.43	1500.12
342.44	1500.12
342.45	1500.13
342.46	1500.13
342.47	1500.14
342.48	1500.14
342.49	1500.15
342.5	1500.15
342.51	1500.16
342.52	1500.16
342.53	1500.17
342.54	1500.17
342.55	1500.18
342.56	1500.18
342.57	1500.18
342.58	1500.19
342.59	1500.19
342.6	1500.2
342.61	1500.2
342.62	1500.21
342.63	1500.21
342.64	1500.22
342.65	1500.22
342.66	1500.23
342.67	1500.23
342.68	1500.24
342.69	1500.24
342.7	1500.25
342.71	1500.25
342.72	1500.26
342.73	1500.26
342.74	1500.27
342.75	1500.27
342.76	1500.28
342.77	1500.28
342.78	1500.29
342.79	1500.29
342.8	1500.3
342.81	1500.3
342.82	1500.31
342.83	1500.31
342.84	1500.32
342.85	1500.32
342.86	1500.33
342.87	1500.33
342.88	1500.34
342.89	1500.34
342.9	1500.35
342.91	1500.35
342.92	1500.36
342.93	1500.36
342.94	1500.37
342.95	1500.37
342.96	1500.37
342.97	1500.38
342.98	1500.38
342.99	1500.39
343	1500.39
343.01	1500.4
343.02	1500.4
343.03	1500.41
343.04	1500.41
343.05	1500.42
343.06	1500.42
343.07	1500.43
343.08	1500.43
343.09	1500.44
343.1	1500.44
343.11	1500.45
343.12	1500.45
343.13	1500.46
343.14	1500.46
343.15	1500.47
343.16	1500.47
343.17	1500.48
343.18	1500.48
343.19	1500.49
343.2	1500.49
343.21	1500.5
343.22	1500.5
343.23	1500.51
343.24	1500.51
343.25	1500.52
343.26	1500.52
343.27	1500.53
343.28	1500.53
343.29	1500.54
343.3	1500.54
343.31	1500.55
343.32	1500.55
343.33	1500.56
343.34	1500.56
343.35	1500.56
343.36	1500.57
343.37	1500.57
343.38	1500.58
343.39	1500.58
343.4	1500.59
343.41	1500.59
343.42	1500.6
343.43	1500.6
343.44	1500.61
343.45	1500.61
343.46	1500.62
343.47	1500.62
343.48	1500.63
343.49	1500.63
343.5	1500.64
343.51	1500.64
343.52	1500.65
343.53	1500.65
343.54	1500.66
343.55	1500.66
343.56	1500.67
343.57	1500.67
343.58	1500.68
343.59	1500.68
343.6	1500.69
343.61	1500.69
343.62	1500.7
343.63	1500.7
343.64	1500.71
343.65	1500.71
343.66	1500.72
343.67	1500.72
343.68	1500.73
343.69	1500.73
343.7	1500.74
343.71	1500.74
343.72	1500.75
343.73	1500.75
343.74	1500.75
343.75	1500.76
343.76	1500.76
343.77	1500.77
343.78	1500.77
343.79	1500.78
343.8	1500.78
343.81	1500.79
343.82	1500.79
343.83	1500.8
343.84	1500.8
343.85	1500.81
343.86	1500.81
343.87	1500.82
343.88	1500.82
343.89	1500.83
343.9	1500.83
343.91	1500.84
343.92	1500.84
343.93	1500.85
343.94	1500.85
343.95	1500.86
343.96	1500.86
343.97	1500.87
343.98	1500.87
343.99	1500.88
344	1500.88
344.01	1500.89
344.02	1500.89
344.03	1500.9
344.04	1500.9
344.05	1500.91
344.06	1500.91
344.07	1500.92
344.08	1500.92
344.09	1500.93
344.1	1500.93
344.11	1500.94
344.12	1500.94
344.13	1500.94
344.14	1500.95
344.15	1500.95
344.16	1500.96
344.17	1500.96
344.18	1500.97
344.19	1500.97
344.2	1500.98
344.21	1500.98
344.22	1500.99
344.23	1500.99
344.24	1501
344.25	1501
344.26	1501.01
344.27	1501.01
344.28	1501.02
344.29	1501.02
344.3	1501.03
344.31	1501.03
344.32	1501.04
344.33	1501.04
344.34	1501.05
344.35	1501.05
344.36	1501.06
344.37	1501.06
344.38	1501.07
344.39	1501.07
344.4	1501.08
344.41	1501.08
344.42	1501.09
344.43	1501.09
344.44	1501.1
344.45	1501.1
344.46	1501.11
344.47	1501.11
344.48	1501.12
344.49	1501.12
344.5	1501.13
344.51	1501.13
344.52	1501.13
344.53	1501.14
344.54	1501.14
344.55	1501.15
344.56	1501.15
344.57	1501.16
344.58	1501.16
344.59	1501.17
344.6	1501.17
344.61	1501.18
344.62	1501.18
344.63	1501.19
344.64	1501.19
344.65	1501.2
344.66	1501.2
344.67	1501.21
344.68	1501.21
344.69	1501.22
344.7	1501.22
344.71	1501.23
344.72	1501.23
344.73	1501.24
344.74	1501.24
344.75	1501.25
344.76	1501.25
344.77	1501.26
344.78	1501.26
344.79	1501.27
344.8	1501.27
344.81	1501.28
344.82	1501.28
344.83	1501.29
344.84	1501.29
344.85	1501.3
344.86	1501.3
344.87	1501.31
344.88	1501.31
344.89	1501.32
344.9	1501.32
344.91	1501.32
344.92	1501.33
344.93	1501.33
344.94	1501.34
344.95	1501.34
344.96	1501.35
344.97	1501.35
344.98	1501.36
344.99	1501.36
345	1501.37
345.01	1501.37
345.02	1501.38
345.03	1501.38
345.04	1501.39
345.05	1501.39
345.06	1501.4
345.07	1501.4
345.08	1501.41
345.09	1501.41
345.1	1501.42
345.11	1501.42
345.12	1501.43
345.13	1501.43
345.14	1501.44
345.15	1501.44
345.16	1501.45
345.17	1501.45
345.18	1501.46
345.19	1501.46
345.2	1501.47
345.21	1501.47
345.22	1501.48
345.23	1501.48
345.24	1501.49
345.25	1501.49
345.26	1501.5
345.27	1501.5
345.28	1501.51
345.29	1501.51
345.3	1501.51
345.31	1501.52
345.32	1501.52
345.33	1501.53
345.34	1501.53
345.35	1501.54
345.36	1501.54
345.37	1501.55
345.38	1501.55
345.39	1501.56
345.4	1501.56
345.41	1501.57
345.42	1501.57
345.43	1501.58
345.44	1501.58
345.45	1501.59
345.46	1501.59
345.47	1501.6
345.48	1501.6
345.49	1501.61
345.5	1501.61
345.51	1501.62
345.52	1501.62
345.53	1501.63
345.54	1501.63
345.55	1501.64
345.56	1501.64
345.57	1501.65
345.58	1501.65
345.59	1501.66
345.6	1501.66
345.61	1501.67
345.62	1501.67
345.63	1501.68
345.64	1501.68
345.65	1501.69
345.66	1501.69
345.67	1501.7
345.68	1501.7
345.69	1501.7
345.7	1501.71
345.71	1501.71
345.72	1501.72
345.73	1501.72
345.74	1501.73
345.75	1501.73
345.76	1501.74
345.77	1501.74
345.78	1501.75
345.79	1501.75
345.8	1501.76
345.81	1501.76
345.82	1501.77
345.83	1501.77
345.84	1501.78
345.85	1501.78
345.86	1501.79
345.87	1501.79
345.88	1501.8
345.89	1501.8
345.9	1501.81
345.91	1501.81
345.92	1501.82
345.93	1501.82
345.94	1501.83
345.95	1501.83
345.96	1501.84
345.97	1501.84
345.98	1501.85
345.99	1501.85
346	1501.86
346.01	1501.86
346.02	1501.87
346.03	1501.87
346.04	1501.88
346.05	1501.88
346.06	1501.89
346.07	1501.89
346.08	1501.89
346.09	1501.9
346.1	1501.9
346.11	1501.91
346.12	1501.91
346.13	1501.92
346.14	1501.92
346.15	1501.93
346.16	1501.93
346.17	1501.94
346.18	1501.94
346.19	1501.95
346.2	1501.95
346.21	1501.96
346.22	1501.96
346.23	1501.97
346.24	1501.97
346.25	1501.98
346.26	1501.98
346.27	1501.99
346.28	1501.99
346.29	1502
346.3	1502
346.31	1502.01
346.32	1502.01
346.33	1502.02
346.34	1502.02
346.35	1502.03
346.36	1502.03
346.37	1502.04
346.38	1502.04
346.39	1502.05
346.4	1502.05
346.41	1502.06
346.42	1502.06
346.43	1502.07
346.44	1502.07
346.45	1502.08
346.46	1502.08
346.47	1502.08
346.48	1502.09
346.49	1502.09
346.5	1502.1
346.51	1502.1
346.52	1502.11
346.53	1502.11
346.54	1502.12
346.55	1502.12
346.56	1502.13
346.57	1502.13
346.58	1502.14
346.59	1502.14
346.6	1502.15
346.61	1502.15
346.62	1502.16
346.63	1502.16
346.64	1502.17
346.65	1502.17
346.66	1502.18
346.67	1502.18
346.68	1502.19
346.69	1502.19
346.7	1502.2
346.71	1502.2
346.72	1502.21
346.73	1502.21
346.74	1502.22
346.75	1502.22
346.76	1502.23
346.77	1502.23
346.78	1502.24
346.79	1502.24
346.8	1502.25
346.81	1502.25
346.82	1502.26
346.83	1502.26
346.84	1502.27
346.85	1502.27
346.86	1502.27
346.87	1502.28
346.88	1502.28
346.89	1502.29
346.9	1502.29
346.91	1502.3
346.92	1502.3
346.93	1502.31
346.94	1502.31
346.95	1502.32
346.96	1502.32
346.97	1502.33
346.98	1502.33
346.99	1502.34
347	1502.34
347.01	1502.35
347.02	1502.35
347.03	1502.36
347.04	1502.36
347.05	1502.37
347.06	1502.37
347.07	1502.38
347.08	1502.38
347.09	1502.39
347.1	1502.39
347.11	1502.4
347.12	1502.4
347.13	1502.41
347.14	1502.41
347.15	1502.42
347.16	1502.42
347.17	1502.43
347.18	1502.43
347.19	1502.44
347.2	1502.44
347.21	1502.45
347.22	1502.45
347.23	1502.46
347.24	1502.46
347.25	1502.46
347.26	1502.47
347.27	1502.47
347.28	1502.48
347.29	1502.48
347.3	1502.49
347.31	1502.49
347.32	1502.5
347.33	1502.5
347.34	1502.51
347.35	1502.51
347.36	1502.52
347.37	1502.52
347.38	1502.53
347.39	1502.53
347.4	1502.54
347.41	1502.54
347.42	1502.55
347.43	1502.55
347.44	1502.56
347.45	1502.56
347.46	1502.57
347.47	1502.57
347.48	1502.58
347.49	1502.58
347.5	1502.59
347.51	1502.59
347.52	1502.6
347.53	1502.6
347.54	1502.61
347.55	1502.61
347.56	1502.62
347.57	1502.62
347.58	1502.63
347.59	1502.63
347.6	1502.64
347.61	1502.64
347.62	1502.65
347.63	1502.65
347.64	1502.65
347.65	1502.66
347.66	1502.66
347.67	1502.67
347.68	1502.67
347.69	1502.68
347.7	1502.68
347.71	1502.69
347.72	1502.69
347.73	1502.7
347.74	1502.7
347.75	1502.71
347.76	1502.71
347.77	1502.72
347.78	1502.72
347.79	1502.73
347.8	1502.73
347.81	1502.74
347.82	1502.74
347.83	1502.75
347.84	1502.75
347.85	1502.76
347.86	1502.76
347.87	1502.77
347.88	1502.77
347.89	1502.78
347.9	1502.78
347.91	1502.79
347.92	1502.79
347.93	1502.8
347.94	1502.8
347.95	1502.81
347.96	1502.81
347.97	1502.82
347.98	1502.82
347.99	1502.83
348	1502.83
348.01	1502.84
348.02	1502.84
348.03	1502.84
348.04	1502.85
348.05	1502.85
348.06	1502.86
348.07	1502.86
348.08	1502.87
348.09	1502.87
348.1	1502.88
348.11	1502.88
348.12	1502.89
348.13	1502.89
348.14	1502.9
348.15	1502.9
348.16	1502.91
348.17	1502.91
348.18	1502.92
348.19	1502.92
348.2	1502.93
348.21	1502.93
348.22	1502.94
348.23	1502.94
348.24	1502.95
348.25	1502.95
348.26	1502.96
348.27	1502.96
348.28	1502.97
348.29	1502.97
348.3	1502.98
348.31	1502.98
348.32	1502.99
348.33	1502.99
348.34	1503
348.35	1503
348.36	1503.01
348.37	1503.01
348.38	1503.02
348.39	1503.02
348.4	1503.03
348.41	1503.03
348.42	1503.03
348.43	1503.04
348.44	1503.04
348.45	1503.05
348.46	1503.05
348.47	1503.06
348.48	1503.06
348.49	1503.07
348.5	1503.07
348.51	1503.08
348.52	1503.08
348.53	1503.09
348.54	1503.09
348.55	1503.1
348.56	1503.1
348.57	1503.11
348.58	1503.11
348.59	1503.12
348.6	1503.12
348.61	1503.13
348.62	1503.13
348.63	1503.14
348.64	1503.14
348.65	1503.15
348.66	1503.15
348.67	1503.16
348.68	1503.16
348.69	1503.17
348.7	1503.17
348.71	1503.18
348.72	1503.18
348.73	1503.19
348.74	1503.19
348.75	1503.2
348.76	1503.2
348.77	1503.21
348.78	1503.21
348.79	1503.21
348.8	1503.22
348.81	1503.22
348.82	1503.23
348.83	1503.23
348.84	1503.24
348.85	1503.24
348.86	1503.25
348.87	1503.25
348.88	1503.26
348.89	1503.26
348.9	1503.27
348.91	1503.27
348.92	1503.28
348.93	1503.28
348.94	1503.29
348.95	1503.29
348.96	1503.3
348.97	1503.3
348.98	1503.31
348.99	1503.31
349	1503.32
349.01	1503.32
349.02	1503.33
349.03	1503.33
349.04	1503.34
349.05	1503.34
349.06	1503.35
349.07	1503.35
349.08	1503.36
349.09	1503.36
349.1	1503.37
349.11	1503.37
349.12	1503.38
349.13	1503.38
349.14	1503.39
349.15	1503.39
349.16	1503.4
349.17	1503.4
349.18	1503.4
349.19	1503.41
349.2	1503.41
349.21	1503.42
349.22	1503.42
349.23	1503.43
349.24	1503.43
349.25	1503.44
349.26	1503.44
349.27	1503.45
349.28	1503.45
349.29	1503.46
349.3	1503.46
349.31	1503.47
349.32	1503.47
349.33	1503.48
349.34	1503.48
349.35	1503.49
349.36	1503.49
349.37	1503.5
349.38	1503.5
349.39	1503.51
349.4	1503.51
349.41	1503.52
349.42	1503.52
349.43	1503.53
349.44	1503.53
349.45	1503.54
349.46	1503.54
349.47	1503.55
349.48	1503.55
349.49	1503.56
349.5	1503.56
349.51	1503.57
349.52	1503.57
349.53	1503.58
349.54	1503.58
349.55	1503.59
349.56	1503.59
349.57	1503.59
349.58	1503.6
349.59	1503.6
349.6	1503.61
349.61	1503.61
349.62	1503.62
349.63	1503.62
349.64	1503.63
349.65	1503.63
349.66	1503.64
349.67	1503.64
349.68	1503.65
349.69	1503.65
349.7	1503.66
349.71	1503.66
349.72	1503.67
349.73	1503.67
349.74	1503.68
349.75	1503.68
349.76	1503.69
349.77	1503.69
349.78	1503.7
349.79	1503.7
349.8	1503.71
349.81	1503.71
349.82	1503.72
349.83	1503.72
349.84	1503.73
349.85	1503.73
349.86	1503.74
349.87	1503.74
349.88	1503.75
349.89	1503.75
349.9	1503.76
349.91	1503.76
349.92	1503.77
349.93	1503.77
349.94	1503.78
349.95	1503.78
349.96	1503.78
349.97	1503.79
349.98	1503.79
349.99	1503.8
350	355.46

