Data from https://doi.org/10.1103/PhysRevMaterials.3.044406
Specific heat capacity (J/kg/K) at different applied pressures (bar), upon cooling.
IMPORTANT NOTE: The specific heat capacity for different applied pressures
is extracted from the graphs of entropy change and calculated via the relation
cp = T(ds/dT). This means that the error in the values can be quite big and one
should keep in mind that the position, rather than the absolute value of the
specific heat capacity is accurate. The most accurate values for the specific
heat capacity is at zero applied pressure.

0.0	230.0000	230.2500	230.5000	230.7500	231.0000	231.2500	231.5000	231.7500	232.0000	232.2500	232.5000	232.7500	233.0000	233.2500	233.5000	233.7500	234.0000	234.2500	234.5000	234.7500	235.0000	235.2500	235.5000	235.7500	236.0000	236.2500	236.5000	236.7500	237.0000	237.2500	237.5000	237.7500	238.0000	238.2500	238.5000	238.7500	239.0000	239.2500	239.5000	239.7500	240.0000	240.2500	240.5000	240.7500	241.0000	241.2500	241.5000	241.7500	242.0000	242.2500	242.5000	242.7500	243.0000	243.2500	243.5000	243.7500	244.0000	244.2500	244.5000	244.7500	245.0000	245.2500	245.5000	245.7500	246.0000	246.2500	246.5000	246.7500	247.0000	247.2500	247.5000	247.7500	248.0000	248.2500	248.5000	248.7500	249.0000	249.2500	249.5000	249.7500	250.0000	250.2500	250.5000	250.7500	251.0000	251.2500	251.5000	251.7500	252.0000	252.2500	252.5000	252.7500	253.0000	253.2500	253.5000	253.7500	254.0000	254.2500	254.5000	254.7500	255.0000	255.2500	255.5000	255.7500	256.0000	256.2500	256.5000	256.7500	257.0000	257.2500	257.5000	257.7500	258.0000	258.2500	258.5000	258.7500	259.0000	259.2500	259.5000	259.7500	260.0000	260.2500	260.5000	260.7500	261.0000	261.2500	261.5000	261.7500	262.0000	262.2500	262.5000	262.7500	263.0000	263.2500	263.5000	263.7500	264.0000	264.2500	264.5000	264.7500	265.0000	265.2500	265.5000	265.7500	266.0000	266.2500	266.5000	266.7500	267.0000	267.2500	267.5000	267.7500	268.0000	268.2500	268.5000	268.7500	269.0000	269.2500	269.5000	269.7500	270.0000	270.2500	270.5000	270.7500	271.0000	271.2500	271.5000	271.7500	272.0000	272.2500	272.5000	272.7500	273.0000	273.2500	273.5000	273.7500	274.0000	274.2500	274.5000	274.7500	275.0000	275.2500	275.5000	275.7500	276.0000	276.2500	276.5000	276.7500	277.0000	277.2500	277.5000	277.7500	278.0000	278.2500	278.5000	278.7500	279.0000	279.2500	279.5000	279.7500	
0.0000	536.1100	530.1350	549.3300	557.7850	551.1100	568.9000	595.6400	597.7250	618.4100	626.2900	622.6900	680.0350	713.3300	712.6950	697.3200	700.9400	838.7000	732.7100	860.2800	829.7800	831.5300	1016.6300	844.4200	1014.1300	1151.7200	1182.5200	1074.4400	1317.7500	1194.0400	1348.6150	1309.8000	1622.2550	1415.8000	2101.3700	1808.7500	2384.6750	1941.9800	2555.4950	2344.8200	2489.9850	2737.4800	2914.3850	2494.6100	2981.6750	2973.6500	2642.1050	3312.8700	2742.9450	2503.6300	2501.3300	3574.9300	2991.2350	2570.2300	2782.0500	2649.0300	2551.2750	2732.7100	2117.3800	1975.6600	2457.6500	1935.4600	1483.4000	1332.8600	1465.3850	1358.9800	1081.0700	969.6000	916.6150	1005.7100	830.0500	808.8700	759.1300	706.4200	696.1350	668.3700	644.4900	629.3100	636.0150	603.8600	618.6450	619.4500	578.6000	566.4200	562.8900	551.8700	549.9000	542.6800	533.7900	528.8200	529.8450	528.2000	525.7850	525.1700	517.4050	519.5400	504.7900	502.0000	499.6700	497.6500	496.8450	493.8200	493.5700	495.0400	489.5000	489.1400	487.5800	487.7100	485.9400	485.2600	484.5650	486.2400	483.2250	482.6400	481.8800	481.4000	481.1150	480.6000	480.2300	480.6200	479.9850	479.8800	479.7600	479.3700	479.5450	479.1300	479.0000	478.8900	478.7750	478.5700	478.4000	478.2800	478.1750	478.1600	478.1400	478.0900	478.1150	478.1600	478.1500	478.1400	478.1650	478.1800	478.2050	478.2200	478.2450	478.2700	478.2850	478.3100	478.3300	478.3500	478.3750	478.3900	478.4150	478.4300	478.4550	478.4800	478.4950	478.5200	478.5400	478.5600	478.5850	478.6000	478.6250	478.6400	478.6650	478.6900	478.7050	478.7300	478.7450	478.7700	478.7950	478.8100	478.8350	478.8500	478.8750	478.9000	478.9150	478.9400	478.9550	478.9800	479.0000	479.0200	479.0450	479.0600	479.0850	479.1100	479.1250	479.1500	479.1650	479.1900	479.2100	479.2300	479.2550	479.2700	479.2950	479.3200	479.3350	479.3600	479.3750	479.4000	479.4200	
1.1000	524.4000	530.0694	405.2063	410.0050	536.0354	526.7611	531.1555	559.7256	452.9874	396.9104	481.6388	511.3708	529.3520	558.1088	547.8817	524.3220	524.8824	508.4817	483.6458	512.5501	519.9365	506.2817	437.9577	437.7847	538.0627	539.6314	554.4794	630.1143	705.7492	781.3842	857.0191	845.7528	804.2701	959.3588	1107.4516	1175.4560	1205.4925	1131.4011	1128.5274	1227.4622	1243.3361	1192.7732	1280.1736	1447.3558	1723.1283	2010.2939	1972.2942	2087.8837	2397.3712	2706.8586	2958.5866	2560.2378	2559.1265	2650.5578	2737.9262	2825.2945	3134.7634	3392.2096	3391.1316	3317.2035	3243.2755	3334.1216	3473.9640	3332.2526	2954.5329	2592.8770	2280.7771	2215.3288	2181.0334	2154.0609	2017.3196	1852.1857	1653.4201	1494.1438	1381.0754	1532.3158	1856.2658	1610.6970	1282.1278	907.6480	543.0626	571.6502	600.2378	628.8254	657.4129	686.0005	714.5881	743.1757	771.7633	800.3509	828.9385	857.5261	886.1137	783.9390	687.9193	661.9521	642.9965	643.6287	622.4580	569.5994	516.6396	463.5978	503.8256	584.7917	598.2044	598.7880	555.1720	516.6283	517.1308	517.6334	518.1360	518.6386	519.1411	504.4158	477.7837	502.2242	547.9739	516.7488	471.8973	463.0423	460.6856	497.5624	516.4356	489.5604	478.2503	487.8444	487.0029	478.3148	449.9240	413.6874	464.1969	528.5248	483.0021	445.6222	455.2670	467.6180	486.5306	489.3314	471.2903	463.9742	464.4119	478.3063	497.3203	500.2233	500.3356	472.8442	455.6104	493.3708	505.8187	459.5404	442.4122	461.5518	469.6648	470.1026	470.5404	470.9782	479.6867	489.7523	509.0743	517.3748	470.6201	447.3492	476.1540	492.0534	492.5073	487.2695	478.2246	483.3049	493.2556	469.3971	442.1706	442.5759	451.3973	499.6213	517.2064	469.8033	462.4283	501.2183	504.9777	486.2271	467.4248	448.6054	490.2916	534.9373	487.1186	448.2503	448.6557	458.6555	488.1348	494.6514	475.6861	474.7227	484.8680	495.0397	505.2195	480.0391	452.5364	449.5484	447.1437	447.1437	
2.1000	524.4000	530.0694	405.2063	410.0050	536.0354	526.7611	531.1555	559.7256	452.9874	396.9104	481.6388	511.3708	529.3520	558.1088	547.8817	524.3220	524.8824	508.4817	483.6458	512.5501	532.2330	542.8987	553.5645	564.2302	574.8959	579.6282	580.6519	564.6916	571.8169	630.5190	655.3915	639.4474	643.3907	660.7255	702.8897	753.7054	737.9614	712.8963	663.3561	646.1682	782.1341	900.5472	929.4841	1004.0202	1131.4859	1187.4759	1197.1505	1171.8748	1135.0236	1257.5042	1393.9431	1416.5258	1462.0399	1609.5210	1668.8093	1594.9230	2018.0119	2398.8628	1811.6691	1730.5773	1878.8000	2230.9612	2701.8359	2727.6303	2676.8449	2766.2297	2945.2389	3104.9237	3055.0922	2917.0956	2852.6937	3434.6425	2867.8281	2684.6861	2717.6509	2750.9542	3183.7296	2308.4491	2322.6839	2309.8292	2512.4938	2631.2079	2215.5744	2044.0457	1613.8785	1671.9390	1612.6478	1401.4179	1243.6440	1105.8190	1115.7530	1105.0073	1017.5797	918.9629	800.1403	747.8648	761.9236	741.5666	702.2509	673.3847	647.3096	650.3278	652.3966	618.4262	583.6311	545.9393	538.3538	579.8890	579.8802	539.9565	508.7930	482.2559	531.3710	599.5886	540.0601	483.3829	538.2440	564.8045	497.2581	456.9263	461.9136	476.3817	499.6155	519.8687	538.6139	487.1978	419.1099	464.2386	508.4068	490.5333	477.0729	477.5268	499.2504	554.9790	545.7035	478.5974	470.4419	490.9035	483.5263	468.0760	464.2813	464.5888	500.7905	515.8804	467.6348	450.6012	498.6891	489.9645	432.5312	447.2086	495.3855	488.4959	470.0708	478.9650	487.0036	479.0889	477.7018	494.9319	506.9768	508.6636	477.7254	419.8775	443.2926	500.4827	494.2370	475.5832	447.8305	428.6631	471.8945	510.1549	534.9201	523.5512	460.8669	450.8082	501.3460	496.4572	467.9948	470.6380	478.3449	457.4682	443.7719	492.3287	512.7241	460.1262	443.2180	475.0330	489.0467	489.4549	491.6447	494.5095	526.1665	562.6828	446.7805	344.1231	280.4630	228.1597	203.9329	190.1817	190.1817	190.1817	
3.8000	524.4000	530.0694	405.2063	410.0050	536.0354	526.7611	531.1555	559.7256	452.9874	396.9104	481.6388	511.3708	529.3520	558.1088	547.8817	524.3220	524.8824	508.4817	483.6458	512.5501	519.9365	506.2817	437.9577	437.7847	538.0627	539.6314	539.6314	568.8084	553.7497	538.6680	567.9459	548.3881	507.7556	479.4889	510.4310	578.9878	550.6905	572.4034	645.3413	622.3266	588.1466	545.2215	527.0226	535.4591	594.2718	630.9997	651.3997	637.4647	633.2809	637.5122	667.4905	697.5226	726.7381	727.4852	728.2322	728.9791	757.3489	781.8859	797.4587	725.2615	673.8578	710.3902	1011.1045	1243.0979	1189.5886	1136.0792	1086.7709	1133.2849	1217.4403	1329.6000	1383.3228	1398.2767	1369.7226	1382.7328	1433.2675	1539.8918	1577.9330	1599.9553	1616.6372	1655.6740	1723.0098	1875.9555	1902.0554	1868.2953	1923.2672	1969.9274	2010.1077	2088.2172	2117.3453	2088.9736	2144.1737	2182.1437	2176.6570	2120.8901	2072.9716	2075.0140	2088.2286	2076.4337	1932.3323	1905.2583	1942.2413	1944.1442	1912.5713	1852.6651	1800.2572	1723.4852	1616.6932	1621.6432	1591.7609	1476.7570	1443.3153	1425.0503	1395.2471	1443.6622	1498.5860	1433.4721	1368.3582	1284.3417	971.8106	783.7025	705.9316	705.3221	692.2225	661.3883	644.5170	645.6604	677.8801	659.6713	600.7755	458.7421	484.1365	567.2751	583.7118	580.7000	561.1754	481.9803	502.0704	614.2500	524.6865	483.7251	516.2017	506.4537	506.9233	539.5081	508.9530	472.7534	473.1970	496.0077	514.5007	450.3648	463.8219	522.8530	474.7336	467.6938	500.5672	502.3045	496.0295	480.2272	506.7978	524.1387	508.3090	479.7804	458.7538	475.5407	492.3565	502.5354	470.1757	466.7947	481.5599	449.0834	449.2594	482.6145	453.3936	460.7360	527.2533	508.8723	481.3669	465.2379	487.0777	513.5106	513.9775	469.8043	424.3317	524.7264	519.2313	439.3801	456.4939	449.3034	416.2432	493.1651	524.8629	475.0054	467.6225	478.0891	512.1766	508.3050	488.4347	455.1177	421.7102	392.0162	
