Data from https://doi.org/10.1002/adma.201903577
Specific heat capacity (J/kg/K) at different applied pressures (bar), upon cooling.
IMPORTANT NOTE: The specific heat capacity for different applied pressures
is extractedcted from the graphs of entropy change and calculated via the relation
cp = T(ds/dT). This means that the error in the values can be quite big and one
should keep in mind that the position, rather than the absolute value of the
specific heat capacity is accurate. The most accurate values for the specific
heat capacity is at zero applied pressure.

0.0	230.0000	230.2500	230.5000	230.7500	231.0000	231.2500	231.5000	231.7500	232.0000	232.2500	232.5000	232.7500	233.0000	233.2500	233.5000	233.7500	234.0000	234.2500	234.5000	234.7500	235.0000	235.2500	235.5000	235.7500	236.0000	236.2500	236.5000	236.7500	237.0000	237.2500	237.5000	237.7500	238.0000	238.2500	238.5000	238.7500	239.0000	239.2500	239.5000	239.7500	240.0000	240.2500	240.5000	240.7500	241.0000	241.2500	241.5000	241.7500	242.0000	242.2500	242.5000	242.7500	243.0000	243.2500	243.5000	243.7500	244.0000	244.2500	244.5000	244.7500	245.0000	245.2500	245.5000	245.7500	246.0000	246.2500	246.5000	246.7500	247.0000	247.2500	247.5000	247.7500	248.0000	248.2500	248.5000	248.7500	249.0000	249.2500	249.5000	249.7500	250.0000	250.2500	250.5000	250.7500	251.0000	251.2500	251.5000	251.7500	252.0000	252.2500	252.5000	252.7500	253.0000	253.2500	253.5000	253.7500	254.0000	254.2500	254.5000	254.7500	255.0000	255.2500	255.5000	255.7500	256.0000	256.2500	256.5000	256.7500	257.0000	257.2500	257.5000	257.7500	258.0000	258.2500	258.5000	258.7500	259.0000	259.2500	259.5000	259.7500	260.0000	260.2500	260.5000	260.7500	261.0000	261.2500	261.5000	261.7500	262.0000	262.2500	262.5000	262.7500	263.0000	263.2500	263.5000	263.7500	264.0000	264.2500	264.5000	264.7500	265.0000	265.2500	265.5000	265.7500	266.0000	266.2500	266.5000	266.7500	267.0000	267.2500	267.5000	267.7500	268.0000	268.2500	268.5000	268.7500	269.0000	269.2500	269.5000	269.7500	270.0000	270.2500	270.5000	270.7500	271.0000	271.2500	271.5000	271.7500	272.0000	272.2500	272.5000	272.7500	273.0000	273.2500	273.5000	273.7500	274.0000	274.2500	274.5000	274.7500	275.0000	275.2500	275.5000	275.7500	276.0000	276.2500	276.5000	276.7500	277.0000	277.2500	277.5000	277.7500	278.0000	278.2500	278.5000	278.7500	279.0000	279.2500	279.5000	279.7500	280.0000	280.2500	280.5000	280.7500	281.0000	281.2500	281.5000	281.7500	282.0000	282.2500	282.5000	282.7500	283.0000	283.2500	283.5000	283.7500	284.0000	284.2500	284.5000	284.7500	285.0000	285.2500	285.5000	285.7500	286.0000	286.2500	286.5000	286.7500	287.0000	287.2500	287.5000	287.7500	288.0000	288.2500	288.5000	288.7500	289.0000	289.2500	289.5000	289.7500	290.0000	290.2500	290.5000	290.7500	291.0000	291.2500	291.5000	291.7500	292.0000	292.2500	292.5000	292.7500	293.0000	293.2500	293.5000	293.7500	294.0000	294.2500	294.5000	294.7500	295.0000	295.2500	295.5000	295.7500	296.0000	296.2500	296.5000	296.7500	297.0000	297.2500	297.5000	297.7500	298.0000	298.2500	298.5000	298.7500	299.0000	299.2500	299.5000	299.7500	300.0000	300.2500	300.5000	300.7500	301.0000	301.2500	301.5000	301.7500	302.0000	302.2500	302.5000	302.7500	303.0000	303.2500	303.5000	303.7500	304.0000	304.2500	304.5000	304.7500	305.0000	305.2500	305.5000	305.7500	306.0000	306.2500	306.5000	306.7500	307.0000	307.2500	307.5000	307.7500	308.0000	308.2500	308.5000	308.7500	309.0000	309.2500	309.5000	309.7500	310.0000	310.2500	310.5000	310.7500	311.0000	311.2500	311.5000	311.7500	312.0000	312.2500	312.5000	312.7500	313.0000	313.2500	313.5000	313.7500	314.0000	314.2500	314.5000	314.7500	315.0000	315.2500	315.5000	315.7500	316.0000	316.2500	316.5000	316.7500	317.0000	317.2500	317.5000	317.7500	318.0000	318.2500	318.5000	318.7500	319.0000	319.2500	319.5000	319.7500	
0.0000	392.3400	392.5929	392.7400	392.9365	393.0663	393.3076	393.4775	393.6812	393.8838	394.0694	394.2837	394.3935	394.6700	394.9229	395.0141	395.1844	395.4647	395.7018	395.9312	396.0771	395.7712	395.9418	396.3388	396.7759	396.9259	397.1947	397.5212	397.9576	398.3635	398.2638	398.1082	398.3612	398.6829	399.0612	399.5153	399.4919	399.5318	399.7769	400.2300	400.6735	400.8031	400.9918	401.2981	401.4724	401.3750	401.2347	401.6950	402.0753	402.2394	402.5488	402.8081	402.7635	402.9212	403.2735	403.7287	403.9829	404.2969	404.8041	405.2494	405.7571	406.2100	405.9235	406.0594	406.5118	406.8059	407.2118	407.4953	407.8465	407.9818	408.2600	408.7647	408.8818	409.0912	409.3500	409.6924	410.2529	410.5818	410.9147	411.2929	411.4600	411.8141	412.0100	412.2012	412.4800	412.9535	413.1300	413.4506	413.9700	414.3153	414.6400	415.0900	415.4600	415.8150	416.1000	416.6500	417.2300	417.8382	418.3000	418.7100	418.8500	419.3147	419.9200	420.3850	420.8700	421.2650	421.5800	421.9600	422.4400	422.9650	423.2300	423.6624	424.1300	424.6047	425.1400	425.2606	425.7600	426.3600	426.9800	427.4047	427.9100	428.6624	429.4500	429.8835	430.2900	430.6853	431.1612	431.6624	432.2329	432.9188	433.5906	434.5659	435.5782	435.9456	436.4118	437.0031	437.5765	437.9769	438.5353	439.0156	439.5006	440.2047	441.4494	442.9235	443.1812	443.6188	444.2881	444.8565	445.5269	445.9394	447.4631	448.5106	448.8429	449.2565	449.4506	450.1806	452.1571	453.2635	453.9018	454.3300	454.6182	454.8937	455.5059	456.7671	458.4141	459.9335	460.3875	461.4971	464.2238	466.4012	467.3765	469.4371	471.5347	473.9581	475.3029	476.3582	479.8500	481.6729	485.2865	489.5965	490.1512	492.1225	496.1176	500.2829	505.4429	509.0129	513.7519	517.6312	525.3194	530.7135	536.8635	544.1829	554.9159	563.9000	573.1529	583.7056	597.4124	610.4733	626.6976	643.5200	661.7441	688.0300	713.0322	742.2178	772.4133	808.6000	849.1567	895.9468	950.3500	1007.2320	1068.3689	1140.9932	1217.4605	1300.2310	1392.5300	1482.8233	1568.4532	1627.2633	1684.9133	1742.4447	1793.5300	1833.5047	1842.4100	1852.5350	1854.9656	1838.4937	1811.5900	1796.2020	1769.9675	1732.7300	1703.8263	1675.4575	1632.3625	1613.8688	1623.5153	1584.6600	1545.8353	1494.0780	1440.6047	1393.9227	1323.3960	1258.1780	1201.1753	1137.1120	1074.6507	997.7738	953.7540	920.1833	870.4369	827.6381	785.4187	745.7325	710.1000	683.4600	660.1056	639.4900	616.9359	601.1969	585.2000	574.6500	557.6206	541.5000	525.7200	510.6641	502.1250	493.4381	484.5459	478.8359	472.7975	468.5375	464.0324	459.8371	457.4547	454.8700	451.2762	446.8837	443.0112	438.1212	436.7529	435.9018	435.3200	432.5706	428.5335	425.9282	424.7300	423.4350	422.3900	421.1900	419.8900	419.3450	418.8100	418.4250	418.1000	417.4476	416.6600	416.2076	415.8200	415.3224	414.9200	414.5224	414.2100	413.9329	413.6700	413.2706	412.9465	412.6718	412.4600	412.4035	412.0935	411.8088	411.7541	411.5700	411.2088	411.2006	411.1982	410.9676	410.7118	410.7512	410.4741	410.3376	410.3206	410.3406	410.2441	409.9419	409.6535	409.7156	409.7600	409.6137	409.4247	409.3456	409.3465	409.2844	409.2959	409.1175	408.8724	408.7556	408.7444	408.6247	408.3788	408.3037	408.2829	408.3019	408.2100	408.2100	408.2631	408.2924	408.2388	408.0094	407.8781	407.8676	407.8919	407.8494	407.8244	407.7341	407.5806	407.6606	407.6438	407.4794	407.3950	407.3671	407.5512	
1.1000	473.9662	473.9662	473.9662	473.9662	473.9662	467.5927	456.0965	444.6003	433.1042	421.6080	410.1118	398.6156	387.1195	375.6233	376.7840	381.0303	385.2766	389.5229	393.7692	398.0154	402.2617	406.5080	410.7543	414.1002	407.2586	400.4170	393.5753	386.7337	379.8921	373.0505	366.2089	359.3673	352.5256	345.6840	346.9030	349.3052	351.7074	354.1097	356.5119	358.9141	361.3163	363.7185	372.0733	384.2725	396.4716	408.6707	420.8699	433.0690	445.2682	457.4673	469.6664	481.8656	494.0647	506.2638	518.4630	503.3539	487.3420	471.3301	455.3183	439.3064	423.2945	407.2827	397.0538	389.5967	382.1396	374.6825	367.2254	359.7683	352.3112	353.1019	367.1459	381.1900	395.2340	409.2780	423.3220	437.3660	451.4100	465.4541	479.4981	487.5556	467.3518	447.1481	426.9444	406.7406	386.5369	366.3332	346.1294	346.8783	350.4088	353.9392	357.4697	361.0002	364.5307	368.0612	371.5917	376.4082	389.6814	402.9547	416.2279	429.5011	442.7744	456.0476	469.3208	482.5941	495.8673	497.9377	483.8335	469.7293	455.6251	441.5209	427.4167	413.3125	403.3109	424.2123	445.1136	466.0149	486.9162	507.8175	528.7188	549.6201	570.5215	591.4228	587.5434	580.2977	573.0519	565.8062	558.5605	551.3147	542.2640	510.7581	479.2522	447.7463	416.2405	384.7346	353.2287	343.5110	340.8866	338.2621	335.6377	333.0133	330.3889	327.7645	331.6039	342.9585	354.3131	365.6677	377.0223	388.3769	399.7315	411.0861	422.4407	414.9621	399.8656	384.7691	369.6726	354.5762	339.4797	324.3832	309.2867	316.2605	350.4721	384.6837	418.8953	453.1069	485.2564	498.8470	512.4376	526.0281	539.6187	553.2093	585.8260	624.7037	663.5815	814.6212	987.7281	1160.8351	1333.9420	1432.0862	1724.2435	2224.4101	2696.1072	2698.5567	2701.0061	2654.6448	2309.4396	2170.7399	2128.3287	2085.9175	2043.5062	2001.0950	1958.6838	1916.2726	1873.8613	1831.4501	1789.0389	1746.6277	1704.2164	1662.5341	1637.4761	1612.4181	1587.3601	1562.3022	1537.2442	1512.1862	1487.1283	1462.0703	1437.0123	1411.9544	1386.8964	1270.9521	1140.3106	1009.6691	868.1024	725.8875	583.6726	441.4578	420.9479	492.7010	564.4542	636.2073	707.9604	755.5442	718.0330	680.5217	643.0105	605.4992	567.9880	580.6511	600.5739	620.4967	640.4194	660.3422	680.2650	700.1878	720.1812	740.2253	760.2695	780.3136	800.3578	820.4019	840.4461	830.0472	744.8250	659.6027	574.3804	489.1582	456.2968	493.4130	530.5292	567.6454	604.7616	641.8778	672.5757	650.2632	627.9507	605.6383	583.3258	561.0134	538.7009	516.3884	499.8787	495.1501	490.4215	485.6930	480.9644	476.2359	471.4277	458.7390	446.0503	433.3616	420.6729	407.9843	395.2956	382.6069	369.9182	373.6327	382.9439	392.2552	401.5665	410.8777	420.1890	429.5003	429.8270	429.5763	429.3255	429.0748	428.8240	428.8694	431.4125	433.9557	436.4989	439.0420	441.5852	444.1284	446.6715	449.2147	451.7578	454.3010	456.8442	459.3873	455.7814	445.1292	434.4770	423.8248	413.1726	402.5204	392.9184	389.4404	385.9623	382.4842	379.0062	375.5281	372.0500	368.5720	365.0939	361.6158	358.1377	354.6597	361.1817	368.0643	374.9469	381.8295	388.7121	395.5947	402.4773	411.3633	421.2237	431.0840	440.9444	450.8047	460.6651	470.5254	480.3858	481.8490	471.1484	460.4477	449.7471	439.0464	428.3458	417.6451	406.9445	396.2438	388.5314	395.2448	401.9581	408.6714	415.3848	422.0981	428.8114	433.0677	433.0677	433.0677	433.0677	433.0677	433.0677	433.0677	433.0677	433.0677	433.0677	433.0677	
2.6000	284.5285	284.5285	284.5285	284.5285	284.9044	294.1154	303.3265	312.5376	321.7487	330.9597	340.1708	349.3819	358.5930	367.8041	377.0151	385.2141	391.4968	397.7795	404.0621	410.3448	416.6274	422.9101	428.5183	422.1224	415.7266	409.3307	402.9349	396.5390	390.1431	383.7473	377.3514	370.9556	364.5597	358.1639	360.2934	363.6744	367.0554	370.4364	373.8174	377.1984	380.5794	383.9604	387.3414	390.7224	394.1034	394.0747	392.5199	390.9652	389.4104	387.8556	386.3008	384.7460	394.7368	422.1330	449.5293	476.9255	504.3217	531.7179	559.1141	552.3391	522.0916	491.8441	461.5966	431.3491	401.1016	370.8541	340.6066	310.3591	293.3452	300.2707	307.1962	314.1217	321.0473	327.9728	334.8983	341.8239	348.7494	355.6749	362.6004	372.6711	397.5892	422.5074	447.4255	472.3437	497.2618	522.1800	547.0981	539.4625	527.5050	515.5476	503.5901	491.6327	479.6753	467.7178	455.7604	445.0828	442.8212	440.5597	438.2981	436.0365	433.7750	431.5134	426.7379	416.7649	406.7918	396.8188	386.8457	376.8727	366.8996	356.9266	346.9535	336.3329	319.1004	301.8679	284.6354	267.4029	250.1704	232.9379	215.7054	299.6175	409.2597	518.9019	886.3742	1288.8720	1691.3698	1743.1391	1783.8788	1826.7920	1869.7051	1912.6183	1930.2881	1932.2218	1934.1555	1936.0892	1938.0229	1939.9566	1941.8903	1943.8240	1945.7577	1927.3602	1875.6778	1823.9954	1748.4910	1671.6905	1594.8900	1519.2105	1461.3470	1244.7597	922.7087	650.2199	619.0273	587.8346	556.6419	543.2972	535.3683	527.4395	519.5106	511.5817	503.6529	495.7240	487.7951	480.2832	497.1756	514.0679	530.9602	547.8525	564.7448	581.6371	598.5294	615.4217	626.2960	620.5645	614.8330	609.1014	603.3699	597.6383	591.9068	586.1753	587.6939	596.8193	605.9447	615.0701	624.1955	633.3209	642.4462	651.5716	660.6970	669.8224	678.9478	681.3564	682.0096	682.6628	683.3160	683.9691	684.6223	685.2755	669.6387	637.7638	605.8890	574.0141	542.1393	510.2644	478.3896	446.5147	429.5484	460.8450	492.1417	523.4383	554.7350	586.0316	617.3283	648.6250	679.9216	701.1644	711.7569	722.3494	732.9419	743.5344	754.1270	764.7195	775.3120	777.2924	748.9510	720.6097	692.2683	663.9270	635.5857	607.2443	578.9030	550.5617	550.7160	552.1569	553.5978	555.0387	556.4796	557.9205	559.3614	560.8023	565.4074	582.1787	598.9500	615.7212	632.4925	649.2638	666.0351	682.8063	699.5776	716.3489	711.0586	705.0766	699.0946	693.1127	687.1307	681.1487	675.1667	658.9175	637.7742	616.6309	595.4876	574.3443	553.2010	532.0578	516.5935	510.1934	503.7932	497.3930	490.9929	484.5927	478.1926	471.7924	465.3923	458.9921	454.6165	459.6937	464.7709	469.8480	474.9252	480.0023	485.0795	490.1566	495.2338	500.3110	505.3881	487.6357	469.1091	450.5825	432.0559	413.5293	395.0027	376.4761	357.9495	339.4229	336.6626	339.7217	342.7808	345.8399	348.8991	351.9582	355.0173	358.0764	361.1356	364.1947	367.2538	370.3130	373.3721	376.4312	382.9099	391.3763	399.8427	408.3090	416.7754	425.2418	433.7082	442.1746	450.6410	459.1073	467.5737	476.0401	484.5065	492.9729	501.4392	508.5470	499.1367	489.7263	480.3160	470.9057	461.4953	452.0850	442.6747	433.2643	423.8540	414.4437	405.0333	395.6230	386.2127	380.7497	375.4945	370.2393	364.9841	359.7289	354.4737	349.2185	343.9633	338.7081	333.4529	328.1977	324.4287	324.4287	324.4287	324.4287	324.4287	324.4287	324.4287	324.4287	324.4287	324.4287	324.4287	324.4287	324.4287	324.4287	
3.7000	324.9203	324.9203	324.9203	324.9203	327.3282	331.8990	336.4697	341.0405	345.6113	350.1821	354.7529	359.3236	363.8944	368.4652	374.8898	385.2976	395.7054	406.1133	416.5211	426.9289	437.3367	447.7445	457.1099	447.9220	438.7341	429.5462	420.3583	411.1705	401.9826	392.7947	383.6068	374.4189	377.5738	383.4970	389.4201	395.3433	401.2665	407.1897	413.1129	419.0361	424.9593	430.8824	435.8217	433.6533	431.4850	429.3166	427.1483	424.9799	422.8116	420.6432	418.4749	416.3065	418.1683	420.5549	422.9414	425.3279	427.7144	430.1010	432.4875	434.8740	437.2605	439.6470	442.0336	422.5813	393.9292	365.2771	336.6250	307.9728	279.3207	250.6686	251.7283	295.2623	338.7962	382.3302	425.8642	469.3981	512.1924	547.6512	583.1100	744.8206	1502.5443	2260.2679	2420.5501	2375.2609	2329.9717	2284.6825	2239.3934	2194.1042	2148.8150	2103.5258	2058.2367	2012.1888	1931.1130	1850.0371	1768.9613	1687.8854	1384.5719	998.2874	780.0804	561.8734	409.7235	435.4496	461.1758	486.9019	512.6280	538.3541	564.0803	573.4545	564.0000	554.5456	545.0912	535.6367	526.1823	531.6271	545.7922	559.9573	574.1224	588.2875	602.4526	616.6177	630.7828	642.1528	648.6893	655.2259	661.7625	668.2991	674.8357	681.3723	687.9088	690.2992	656.1865	622.0739	587.9612	553.8485	519.7358	485.6232	493.0827	512.1042	531.1256	550.1471	569.1686	588.1901	607.2116	626.2331	645.2545	651.7995	647.9534	644.1073	640.2612	636.4151	632.5690	628.7229	626.2762	624.3223	622.3684	620.4145	618.4605	616.5066	614.5527	612.5988	610.6448	608.6909	610.8439	616.6331	622.4223	628.2115	634.0007	639.7898	645.5790	651.3682	657.1574	662.9466	668.7357	668.6684	657.6862	646.7040	635.7217	624.7395	613.7573	602.7751	591.7929	580.8107	569.8285	558.8463	550.3294	554.0218	557.7141	561.4064	565.0987	568.7911	572.4834	576.1757	579.8680	583.5604	587.2527	589.7536	592.2039	594.6542	597.1045	599.5548	602.0051	604.4554	606.9057	609.3560	611.8062	608.9502	604.3253	599.7004	595.0755	590.4506	585.8258	581.2009	576.5760	571.9511	567.3262	562.7014	558.0765	555.3993	568.4167	581.4342	594.4516	607.4690	620.4864	633.5039	646.5213	659.5387	672.5561	685.5736	698.5910	706.1234	706.7538	707.3841	708.0145	708.6448	709.2752	709.9056	710.5359	710.2445	705.7080	701.1714	696.6349	692.0984	687.5618	683.0253	678.4888	673.9522	668.9582	663.3528	657.7473	652.1419	646.5365	640.9310	635.3256	629.7201	624.4202	619.2850	614.1499	609.0147	603.8796	598.7444	593.6093	588.4741	583.3389	578.2038	573.0686	564.0484	550.6188	537.1892	523.7597	510.3301	496.9006	483.4710	470.0414	456.6119	443.1823	429.7528	421.0435	424.0496	427.0556	430.0617	433.0677	436.0738	439.0798	442.0859	445.0919	448.0980	450.4375	444.8984	439.3594	433.8203	428.2813	422.7422	417.2032	411.6641	406.1251	400.5860	395.0470	389.5079	383.9689	378.4298	374.6102	372.7609	370.9115	369.0622	367.2129	365.3636	363.5143	361.6650	359.8157	357.9664	356.1171	354.2677	352.4184	350.5691	356.8382	364.4952	372.1522	379.8092	387.4662	395.1232	402.7802	410.4371	418.0941	425.7511	433.4081	441.0651	446.6772	444.7962	442.9153	441.0343	439.1534	437.2724	435.3915	433.5105	431.6296	429.7486	427.8677	425.9867	426.2635	428.3257	430.3880	432.4502	434.5125	436.5747	438.6370	440.6993	442.7615	444.8238	445.1859	445.1859	445.1859	445.1859	445.1859	445.1859	445.1859	445.1859	445.1859	445.1859	445.1859	445.1859	
4.8000	400.7418	400.7418	400.7418	400.6531	393.7254	386.7976	379.8699	372.9422	366.0145	359.0867	352.1590	345.2313	358.3131	378.1217	397.9304	417.7391	437.5477	457.3564	477.1650	482.6490	471.0713	459.4936	447.9159	436.3382	424.7605	414.2536	410.5263	406.7989	403.0715	399.3441	395.6167	391.8894	439.6664	591.8240	743.9815	896.1391	1048.2967	1563.7357	2096.2131	1867.6339	1009.0547	1002.8729	996.6910	990.5091	984.3273	978.1454	971.9635	965.7817	907.9477	835.0318	762.1159	689.2000	674.8855	668.2008	661.5161	652.4322	640.7700	629.1077	617.4454	605.7831	590.9736	574.2383	557.5030	540.7677	524.0324	508.7701	497.4343	486.0986	474.7629	463.4271	452.0914	440.7557	474.6091	510.6812	546.7534	582.8255	618.8976	654.9698	691.0419	727.1140	745.3795	693.4742	641.5690	589.6637	537.7584	485.8531	433.9479	449.2152	473.4003	497.5855	521.7706	545.9557	570.1409	577.8119	572.6542	567.4966	562.3389	557.1812	552.0236	546.8659	550.2603	576.6832	603.1061	629.5290	655.9519	682.3748	708.7977	735.2206	696.5043	656.3499	616.1955	576.0411	535.8867	504.5516	525.3040	546.0564	566.8087	587.5611	608.3135	629.0658	649.8182	670.5706	691.3229	669.8103	644.0153	618.2202	592.4252	566.6302	543.3093	550.7682	558.2271	565.6860	573.1450	580.6039	588.0628	595.5218	602.9807	610.4396	615.9930	621.1770	626.3610	631.5449	636.7289	641.9128	647.0968	652.2808	651.6166	646.5979	641.5793	636.5607	631.5420	626.5234	621.5047	614.8731	607.7520	600.6308	593.5097	586.3886	579.2675	572.1464	565.0252	561.1137	560.3760	559.6383	558.9006	558.1629	557.4252	559.2639	572.6201	585.9762	599.3324	612.6885	626.0447	639.4008	652.7570	666.1131	667.2637	652.3922	637.5207	622.6492	607.7777	592.9062	578.0347	563.1632	548.2917	539.4682	555.5167	571.5652	587.6137	603.6623	619.7108	635.7593	651.8078	667.8564	683.9049	662.8180	640.1516	617.4851	594.8187	572.1522	549.4858	526.8193	512.8714	538.4268	563.9822	589.5376	615.0930	640.6484	666.2038	691.7592	717.3146	742.8700	732.6897	720.3895	708.0894	695.7892	683.4890	671.1888	660.5842	660.5713	660.5584	660.5456	660.5327	660.5198	660.5069	660.4940	660.4811	652.8331	633.1219	613.4106	593.6994	573.9882	554.2770	534.5657	514.8545	526.1237	557.2666	588.4096	619.5526	650.6956	681.8385	712.9815	744.1245	775.2675	806.4104	814.8555	789.3105	763.7655	738.2205	712.6755	687.1305	662.3560	646.3951	630.4342	614.4733	598.5124	582.5515	566.5905	557.3923	550.3250	543.2577	536.1904	529.1230	522.0557	514.9884	507.9211	500.8266	491.0460	481.2655	471.4849	461.7043	451.9237	442.1431	432.3625	422.2626	411.1031	399.9435	388.7840	377.6244	366.4649	355.3054	344.1458	332.9863	321.8267	334.2715	346.8300	359.3886	371.9471	384.5057	397.0642	409.6228	422.1813	434.7399	447.2985	459.8570	465.3636	469.2544	473.1453	477.0362	480.9271	484.8180	488.7089	492.5998	496.4907	500.3816	498.2111	492.0798	485.9486	479.8173	473.6861	467.5548	461.4236	455.2924	449.1611	443.0299	438.9151	437.8811	436.8471	435.8131	434.7791	433.7451	432.7111	431.6771	430.6431	427.1431	410.6192	394.0954	377.5715	361.0476	344.5238	327.9999	311.4761	306.5271	320.3994	334.2716	348.1439	362.0162	375.8885	389.7608	403.6331	417.5054	431.3777	445.2500	457.1164	460.9391	464.7617	468.5844	472.4070	476.2297	480.0523	483.8750	487.6977	487.9454	487.9454	487.9454	487.9454	487.9454	487.9454	487.9454	487.9454	
