Data from https://doi.org/10.1038/s41467-019-09730-9
Specific heat capacity (J/kg/K) at different applied pressures (bar), upon cooling.
IMPORTANT NOTE: The specific heat capacity for different applied pressures
is extracted from the graphs of entropy change and calculated via the relation
cp = T*(ds/dT). This means that the error in the values can be quite big and one
should keep in mind that the position, rather than the absolute value of the
specific heat capacity is accurate. The most accurate values for the specific
heat capacity is at zero applied pressure.

0.0	280.0000	280.2500	280.5000	280.7500	281.0000	281.2500	281.5000	281.7500	282.0000	282.2500	282.5000	282.7500	283.0000	283.2500	283.5000	283.7500	284.0000	284.2500	284.5000	284.7500	285.0000	285.2500	285.5000	285.7500	286.0000	286.2500	286.5000	286.7500	287.0000	287.2500	287.5000	287.7500	288.0000	288.2500	288.5000	288.7500	289.0000	289.2500	289.5000	289.7500	290.0000	290.2500	290.5000	290.7500	291.0000	291.2500	291.5000	291.7500	292.0000	292.2500	292.5000	292.7500	293.0000	293.2500	293.5000	293.7500	294.0000	294.2500	294.5000	294.7500	295.0000	295.2500	295.5000	295.7500	296.0000	296.2500	296.5000	296.7500	297.0000	297.2500	297.5000	297.7500	298.0000	298.2500	298.5000	298.7500	299.0000	299.2500	299.5000	299.7500	300.0000	300.2500	300.5000	300.7500	301.0000	301.2500	301.5000	301.7500	302.0000	302.2500	302.5000	302.7500	303.0000	303.2500	303.5000	303.7500	304.0000	304.2500	304.5000	304.7500	305.0000	305.2500	305.5000	305.7500	306.0000	306.2500	306.5000	306.7500	307.0000	307.2500	307.5000	307.7500	308.0000	308.2500	308.5000	308.7500	309.0000	309.2500	309.5000	309.7500	310.0000	310.2500	310.5000	310.7500	311.0000	311.2500	311.5000	311.7500	312.0000	312.2500	312.5000	312.7500	313.0000	313.2500	313.5000	313.7500	314.0000	314.2500	314.5000	314.7500	315.0000	315.2500	315.5000	315.7500	316.0000	316.2500	316.5000	316.7500	317.0000	317.2500	317.5000	317.7500	318.0000	318.2500	318.5000	318.7500	319.0000	319.2500	319.5000	319.7500	320.0000	320.2500	320.5000	320.7500	321.0000	321.2500	321.5000	321.7500	322.0000	322.2500	322.5000	322.7500	323.0000	323.2500	323.5000	323.7500	324.0000	324.2500	324.5000	324.7500	325.0000	325.2500	325.5000	325.7500	326.0000	326.2500	326.5000	326.7500	327.0000	327.2500	327.5000	327.7500	328.0000	328.2500	328.5000	328.7500	329.0000	329.2500	329.5000	329.7500	330.0000	330.2500	330.5000	330.7500	331.0000	331.2500	331.5000	331.7500	332.0000	332.2500	332.5000	332.7500	333.0000	333.2500	333.5000	333.7500	334.0000	334.2500	334.5000	334.7500	335.0000	335.2500	335.5000	335.7500	336.0000	336.2500	336.5000	336.7500	337.0000	337.2500	337.5000	337.7500	338.0000	338.2500	338.5000	338.7500	339.0000	339.2500	339.5000	339.7500	340.0000	340.2500	340.5000	340.7500	341.0000	341.2500	341.5000	341.7500	342.0000	342.2500	342.5000	342.7500	343.0000	343.2500	343.5000	343.7500	344.0000	344.2500	344.5000	344.7500	345.0000	345.2500	345.5000	345.7500	346.0000	346.2500	346.5000	346.7500	347.0000	347.2500	347.5000	347.7500	348.0000	348.2500	348.5000	348.7500	349.0000	349.2500	349.5000	349.7500	350.0000	350.2500	350.5000	350.7500	351.0000	351.2500	351.5000	351.7500	352.0000	352.2500	352.5000	352.7500	353.0000	353.2500	353.5000	353.7500	354.0000	354.2500	354.5000	354.7500	355.0000	355.2500	355.5000	355.7500	356.0000	356.2500	356.5000	356.7500	357.0000	357.2500	357.5000	357.7500	358.0000	358.2500	358.5000	358.7500	359.0000	359.2500	359.5000	359.7500	360.0000	360.2500	360.5000	360.7500	361.0000	361.2500	361.5000	361.7500	362.0000	362.2500	362.5000	362.7500	363.0000	363.2500	363.5000	363.7500	364.0000	364.2500	364.5000	364.7500	365.0000	365.2500	365.5000	365.7500	366.0000	366.2500	366.5000	366.7500	367.0000	367.2500	367.5000	367.7500	368.0000	368.2500	368.5000	368.7500	369.0000	369.2500	369.5000	369.7500	370.0000	370.2500	370.5000	370.7500	371.0000	371.2500	371.5000	371.7500	372.0000	372.2500	372.5000	372.7500	373.0000	373.2500	373.5000	373.7500	374.0000	374.2500	374.5000	374.7500	
0.0000	1590.0750	1591.0500	1591.2200	1591.3200	1591.2900	1592.6350	1593.5950	1594.3600	1587.9950	1588.3400	1589.1600	1592.2250	1596.0600	1595.9400	1603.9200	1610.4300	1613.4000	1625.7200	1634.9000	1634.9500	1650.6050	1748.4650	1666.0500	1670.5950	1683.6100	1714.7400	1724.8400	1807.3100	1777.3400	1827.3150	2065.1600	1884.4400	1914.3050	1969.1150	2029.6300	2115.8500	2181.8900	2290.8450	2395.9900	2551.9700	2688.0500	3267.9600	3170.8600	3084.6050	3306.7000	3558.4600	3818.5600	4189.6700	4755.1650	5681.2650	6787.1850	6237.8867	5812.9500	6316.2550	6861.1200	7467.7700	8098.9300	8822.6100	9600.6500	10409.2300	11200.0267	12077.0467	12938.7133	13841.1100	14840.6100	15872.0200	17023.4867	18196.6733	19320.0550	20355.3600	21373.3600	22398.7400	23445.2300	24483.1200	25446.3050	26722.3000	4784.4200	2909.7100	2351.4200	2314.3000	2315.5000	2317.2700	2318.1700	2320.8100	2321.6300	2323.0500	2324.4600	2326.2300	2327.7200	2328.8000	2330.7200	2332.1800	2331.5400	2330.5400	2330.5000	2331.5600	2333.0500	2334.5100	2335.9900	2337.3100	2339.2400	2340.5700	2342.4700	2343.4000	2346.4500	2347.9700	2349.4300	2350.9400	2353.2800	2354.8500	2356.8600	2358.5700	2360.1000	2361.6200	2363.4600	2365.3400	2366.8500	2368.7200	2369.9200	2371.6200	2373.2900	2374.6000	2376.2900	2377.8600	2379.6700	2381.6200	2383.3300	2384.9000	2386.5100	2388.4950	2390.3900	2392.2600	2394.4450	2396.7900	2399.0650	2401.4400	2403.9200	2406.3900	2409.2150	2411.5150	2414.1350	2417.5550	2420.6800	2424.2100	2427.4550	2431.3350	2435.2250	2439.0350	2443.1750	2449.2800	2453.7150	2459.2350	2471.0450	2486.1900	2453.7200	2420.4200	2423.8300	2427.4000	2429.6300	2431.2900	2433.3800	2434.4900	2435.6600	2436.4000	2437.8700	2439.2800	2440.2700	2442.6700	2444.2700	2445.8200	2447.4000	2449.0100	2450.4500	2452.0000	2453.4900	2454.5300	2455.9300	2457.5100	2459.3300	2460.9900	2461.1400	2462.8000	2464.1800	2465.6600	2467.0000	2468.3200	2470.0300	2471.2200	2473.2600	2474.2800	2475.6150	2476.8800	2478.2300	2479.7450	2480.9200	2482.4300	2483.8950	2485.3600	2486.6850	2488.0100	2489.3500	2491.6250	2492.8600	2494.2700	2495.3800	2496.7500	2498.5500	2499.7900	2501.5400	2502.8100	2504.3900	2505.7700	2507.1400	2508.4300	2510.3500	2511.3900	2512.7400	2514.1600	2515.3900	2516.8500	2518.0700	2519.4700	2520.6500	2522.1400	2523.1700	2524.6000	2525.6300	2526.8800	2528.6350	2529.8400	2531.4250	2532.4850	2533.7900	2535.1150	2536.0300	2537.3600	2538.7950	2539.8950	2541.1950	2542.3850	2543.7600	2544.9700	2546.0300	2547.2700	2548.1800	2549.3300	2550.3000	2551.5000	2552.3200	2553.4000	2554.6300	2555.6700	2556.6600	2558.0900	2559.0000	2560.0900	2561.1450	2562.1550	2563.1500	2564.7450	2565.8150	2566.8650	2567.7850	2568.8600	2570.0400	2571.6200	2572.2800	2573.3600	2574.1700	2575.4400	2576.4000	2577.3200	2578.3900	2579.3450	2580.7450	2581.6350	2582.5750	2583.1450	2583.8550	2584.2600	2585.1900	2585.6000	2586.3300	2586.8200	2587.2100	2588.1700	2588.2500	2589.1850	2589.4500	2589.7400	2590.3000	2590.7400	2591.1200	2591.1500	2591.7700	2592.6900	2592.5750	2592.5150	2592.1250	2592.4900	2591.0400	2591.0400	2591.0400	2591.0400	2591.0400	2591.0400	2591.0400	2591.0400	2591.0400	2591.0400	2591.0400	2591.0400	2591.0400	2591.0400	2591.0400	2591.0400	2591.0400	2591.0400	2591.0400	2591.0400	2591.0400	2591.0400	2591.0400	2591.0400	2591.0400	2591.0400	2591.0400	2591.0400	2591.0400	2591.0400	2591.0400	2591.0400	2591.0400	2591.0400	2591.0400	2591.0400	2591.0400	2591.0400	2591.0400	2591.0400	2591.0400	2591.0400	2591.0400	2591.0400	2591.0400	2591.0400	2591.0400	2591.0400	2591.0400	2591.0400	2591.0400	2591.0400	2591.0400	2591.0400	2591.0400	2591.0400	2591.0400	2591.0400	2591.0400	2591.0400	2591.0400	2591.0400	2591.0400	2591.0400	2591.0400	2591.0400	2591.0400	2591.0400	2591.0400	2591.0400	2591.0400	2591.0400	2591.0400	2591.0400	2591.0400	2591.0400	2591.0400	2591.0400	2591.0400	2591.0400	
0.0900	1775.2821	1775.2821	1775.2821	1775.2821	1775.2821	1754.0924	1726.7437	1699.3950	1672.0463	1644.6977	1617.3490	1628.9269	1644.8878	1660.8486	1676.8095	1692.7704	1708.7346	1724.8454	1740.9563	1757.0671	1773.1780	1789.2888	1798.9892	1771.1924	1743.3956	1715.5988	1687.8020	1660.0052	1648.0462	1678.9950	1709.9439	1740.8927	1771.8416	1802.7904	1804.6595	1761.7268	1718.7941	1675.8614	1632.9288	1589.9961	1593.1021	1639.1847	1685.2673	1731.3499	1777.4326	1823.5152	1831.4737	1818.0619	1804.6501	1791.2383	1777.8264	1764.4146	1750.8888	1737.3279	1723.7670	1710.2061	1696.6451	1683.0842	1709.7302	1741.4269	1773.1236	1804.8204	1836.5171	1867.4872	1838.6385	1809.7898	1780.9410	1752.0923	1723.2435	1700.5909	1717.3017	1734.0126	1750.7234	1767.4343	1784.1451	1804.8826	1837.1043	1869.3260	1901.5477	1933.7694	1965.9911	1968.7515	1924.0908	1879.4301	1834.7694	1790.1088	1745.4481	1739.8963	1772.3430	1804.7897	1837.2364	1869.6831	1902.1298	1939.6815	1980.2211	2020.7607	2061.3004	2101.8400	2142.3796	2356.9968	2628.2861	2899.5754	3170.8646	3442.1539	3713.4432	6909.1618	10509.7193	14110.2769	17710.8345	22191.4520	54920.2050	66945.1957	78970.1865	108118.9089	261619.5522	275228.0914	79527.0341	24160.4177	2944.3213	2344.6836	2114.7794	2348.5998	2582.4202	2625.9875	2604.6402	2583.2928	2561.9455	2540.5981	2518.5744	2491.1880	2463.8016	2436.4152	2409.0288	2381.6424	2356.6951	2372.8646	2389.0341	2405.2036	2421.3730	2437.5425	2442.8384	2428.7700	2414.7016	2400.6332	2386.5648	2372.4964	2360.6931	2354.0857	2347.4783	2340.8709	2334.2635	2327.6561	2347.2342	2383.7803	2420.3264	2456.8725	2493.4186	2529.9647	2499.2109	2467.8870	2436.5632	2405.2393	2373.9155	2356.0796	2441.4338	2526.7879	2612.1421	2697.4962	2782.8504	2840.2778	2808.8810	2777.4843	2746.0876	2714.6909	2683.2941	2645.6703	2597.1094	2548.5485	2499.9877	2451.4268	2402.8660	2395.3095	2430.9811	2466.6527	2502.3244	2537.9960	2573.6676	2567.9887	2535.9170	2503.8453	2471.7736	2439.7019	2407.6302	2425.5041	2461.4782	2497.4522	2533.4263	2569.4004	2605.3745	2582.7079	2550.3362	2517.9645	2485.5928	2453.2211	2420.8493	2455.8579	2492.1295	2528.4012	2564.6728	2600.9444	2629.9630	2597.2890	2564.6151	2531.9412	2499.2673	2466.5934	2449.7905	2486.3621	2522.9337	2559.5053	2596.0770	2632.6486	2641.6052	2599.9031	2558.2010	2516.4989	2474.7968	2433.0947	2387.0369	2336.1919	2285.3469	2234.5019	2183.6569	2132.8119	2171.5161	2269.9198	2368.3235	2466.7271	2565.1308	2663.5345	2666.4966	2633.0749	2599.6533	2566.2316	2532.8099	2499.3882	2525.9285	2563.2501	2600.5717	2637.8933	2675.2149	2712.5365	2680.8587	2647.1347	2613.4107	2579.6868	2545.9628	2516.0470	2522.3246	2528.6023	2534.8800	2541.1576	2547.4353	2567.9507	2639.3004	2710.6501	2781.9998	2853.3494	2924.6991	2940.7406	2850.5592	2760.3778	2670.1965	2580.0151	2489.8338	2466.0661	2518.2811	2570.4961	2622.7111	2674.9261	2727.1412	2727.8215	2692.6895	2657.5575	2622.4255	2587.2936	2552.1616	2577.9712	2628.2395	2678.5077	2728.7759	2779.0442	2735.5154	2660.9872	2586.4590	2511.9307	2437.4025	2374.5618	2385.7191	2396.8764	2408.0337	2419.1910	2430.3483	2468.8294	2532.4116	2595.9938	2659.5760	2723.1582	2786.7404	2812.3934	2777.2018	2742.0101	2706.8185	2671.6268	2636.4352	2638.5189	2676.7619	2715.0048	2753.2477	2791.4907	2829.7336	2806.6736	2722.5065	2638.3395	2554.1724	2470.0053	2385.8383	2415.4093	2481.8489	2548.2884	2614.7280	2681.1675	2747.6071	2733.1154	2707.4621	2681.8088	2656.1555	2630.5022	2604.9378	2616.3542	2627.7707	2639.1871	2650.6035	2662.0199	2677.0293	2716.8708	2756.7124	2796.5539	2836.3954	2876.2370	2886.1200	2806.1276	2726.1351	2646.1427	2566.1502	2486.1578	2417.5526	2438.8706	2460.1885	2481.5065	2502.8244	2524.1424	2569.2013	2638.2303	2707.2593	2776.2882	2845.3172	2914.3462	2911.7005	2865.3485	2818.9965	2772.6445	2726.2925	2679.9405	2668.1114	2668.1114	2668.1114	2668.1114	2668.1114	2668.1114	
0.2500	1755.2456	1755.2456	1755.2456	1755.2456	1755.2456	1750.1983	1743.6840	1737.1696	1730.6553	1724.1409	1717.6266	1708.3663	1693.0170	1677.6677	1662.3184	1646.9690	1631.6197	1616.2704	1611.8762	1638.7270	1665.5777	1692.4285	1719.2793	1746.1300	1772.9808	1792.7966	1785.8255	1778.8544	1771.8833	1764.9122	1757.9411	1750.9700	1743.8754	1736.1151	1728.3548	1720.5946	1712.8343	1705.0740	1697.3137	1692.4568	1712.4006	1732.3445	1752.2883	1772.2322	1792.1760	1812.1199	1808.8509	1792.5699	1776.2890	1760.0080	1743.7271	1727.4461	1715.8561	1726.0477	1736.2392	1746.4308	1756.6224	1766.8139	1777.0055	1786.1067	1787.6171	1789.1275	1790.6379	1792.1483	1793.6587	1795.1691	1796.6795	1798.1899	1799.7003	1801.2107	1802.7211	1804.2315	1805.7419	1807.0532	1799.6741	1792.2950	1784.9159	1777.5368	1770.1578	1762.7787	1755.3996	1773.9619	1793.3044	1812.6470	1831.9896	1851.3321	1870.6747	1890.0173	1868.1976	1842.7791	1817.3606	1791.9421	1766.5236	1741.1051	1715.6866	1744.9588	1782.5480	1820.1372	1857.7264	1895.3156	1932.9048	1970.4940	1956.4311	1930.7522	1905.0733	1879.3944	1853.7155	1828.0366	1802.3577	1811.4290	1831.1872	1850.9453	1870.7034	1890.4616	1910.2197	1929.9778	1930.1960	1922.5565	1914.9170	1907.2775	1899.6379	1891.9984	1884.3589	1876.6502	1868.9061	1861.1620	1853.4179	1845.6738	1837.9297	1830.1856	1839.4196	1859.4902	1879.5608	1899.6315	1919.7021	1939.7727	1959.8433	1959.1129	1941.9589	1924.8049	1907.6509	1890.4969	1873.3429	1856.1889	1849.1383	1851.9044	1854.6704	1857.4364	1860.2024	1862.9684	1865.7344	1891.2514	1943.9536	1996.6559	2049.3581	2102.0603	2154.7626	2207.4648	2407.1045	2607.9890	2808.8734	3009.7579	3210.6424	3515.2369	4613.2677	5711.2984	6809.3291	7907.3599	9364.2901	13433.3426	17502.3952	38312.2378	74932.5617	86007.8869	81227.5846	76447.2823	77601.4506	75100.2679	45746.6110	20657.3883	6753.8191	2607.5950	2393.7565	2397.1959	2768.6965	3140.1970	3120.1364	2993.2138	2866.2912	2739.3686	2612.4461	2488.9753	2490.8502	2492.7252	2494.6002	2496.4752	2498.3502	2500.2251	2502.1001	2504.3409	2506.5910	2508.8411	2511.0912	2513.3414	2515.5542	2517.4292	2519.3042	2521.1792	2523.0542	2524.9291	2526.8041	2528.6791	2530.5541	2532.4291	2534.3041	2536.1790	2538.0540	2539.9290	2541.8040	2543.6790	2545.5539	2547.4289	2549.3039	2551.1789	2553.0539	2554.9288	2538.6488	2521.2998	2503.9509	2486.6020	2469.2530	2451.9041	2434.5552	2344.8798	2246.5202	2148.1605	2049.8009	1951.4412	1853.0815	1754.7219	1912.3574	2118.1745	2323.9916	2529.8087	2735.6259	2941.4430	3147.2601	3126.0443	3044.4779	2962.9115	2881.3451	2799.7787	2718.2123	2636.6459	2606.9354	2608.8998	2610.8641	2612.8285	2614.7928	2616.7572	2618.7215	2620.8731	2623.0479	2625.2226	2627.3974	2629.5721	2631.7469	2601.9932	2564.7697	2527.5461	2490.3225	2453.0990	2415.8754	2378.6519	2355.3038	2336.3566	2317.4095	2298.4624	2279.5152	2260.5681	2241.6210	2304.1588	2400.3684	2496.5780	2592.7876	2688.9972	2785.2068	2881.4164	2895.5797	2866.7187	2837.8576	2808.9966	2780.1356	2751.2746	2722.4135	2693.5525	2688.8056	2690.7968	2692.7880	2694.7792	2696.7704	2698.7616	2700.7104	2702.4021	2704.0938	2705.7855	2707.4772	2709.1689	2710.8606	2712.5523	2714.3038	2716.1789	2718.0540	2719.9290	2721.8041	2723.6792	2725.5543	2720.3105	2696.2799	2672.2493	2648.2187	2624.1882	2600.1576	2576.1270	2536.8724	2444.6337	2352.3950	2260.1564	2167.9177	2075.6791	1983.4404	1943.4083	2155.4034	2367.3985	2579.3936	2791.3887	3003.3838	3215.3789	3391.3100	3302.7716	3214.2331	3125.6947	3037.1563	2948.6178	2860.0794	2779.6291	2809.3380	2839.0469	2868.7558	2898.4648	2928.1737	2957.8826	2949.9995	2808.8354	2667.6714	2526.5073	2385.3433	2244.1792	2136.7996	2235.5821	2334.3645	2433.1470	2531.9295	2630.7119	2729.4944	2817.5495	2796.0701	2774.5907	2753.1113	2731.6319	2710.1525	2688.6731	2667.1937	2645.7143	2666.2620	2690.8246	2715.3871	2739.9497	2764.5123	2789.0749	
0.3500	1594.6689	1594.6689	1594.6689	1594.6689	1594.6689	1594.6689	1594.6689	1594.6689	1594.6689	1594.6689	1594.6689	1594.6689	1594.6689	1619.7216	1657.3610	1695.0003	1732.6396	1770.2789	1807.9183	1845.5576	1822.9806	1786.9339	1750.8871	1714.8404	1678.7936	1642.7469	1606.7001	1624.3680	1683.8309	1743.2939	1802.7568	1862.2198	1921.6827	1981.1457	1959.4957	1905.3551	1851.2145	1797.0739	1742.9333	1688.7927	1634.6522	1599.3959	1600.4726	1601.5493	1602.6261	1603.7028	1604.7795	1605.8562	1624.5509	1668.8087	1713.0665	1757.3243	1801.5821	1845.8400	1890.0978	1886.0976	1844.1189	1802.1402	1760.1615	1718.1827	1676.2040	1634.2253	1628.4521	1705.2579	1782.0637	1858.8695	1935.6753	2012.4810	2089.2868	2098.4780	2027.1361	1955.7942	1884.4523	1813.1105	1741.7686	1670.4267	1605.7117	1612.8874	1620.0632	1627.2390	1634.4148	1641.5906	1648.7664	1661.7122	1707.2523	1752.7924	1798.3325	1843.8726	1889.4127	1934.9528	1955.1569	1916.8030	1878.4490	1840.0951	1801.7411	1763.3872	1725.0332	1691.7442	1760.6966	1829.6491	1898.6016	1967.5541	2036.5065	2105.4590	2146.2527	2073.5613	2000.8699	1928.1786	1855.4872	1782.7958	1710.1044	1637.4130	1692.7740	1774.9598	1857.1455	1939.3312	2021.5169	2103.7026	2171.5155	2103.3579	2035.2003	1967.0428	1898.8852	1830.7276	1762.5700	1694.4125	1680.8623	1688.1711	1695.4799	1702.7887	1710.0974	1717.4062	1724.7150	1767.2254	1819.1158	1871.0062	1922.8966	1974.7871	2026.6775	2078.5679	2034.6581	1984.7634	1934.8687	1884.9739	1835.0792	1785.1845	1735.2898	1772.3882	1849.2318	1926.0755	2002.9191	2079.7627	2156.6063	2233.4499	2187.3139	2117.4039	2047.4938	1977.5837	1907.6737	1837.7636	1767.8535	1783.5541	1860.3381	1937.1221	2013.9061	2090.6901	2167.4741	2244.2581	2212.5099	2141.5909	2070.6719	1999.7529	1928.8339	1857.9149	1786.9959	1785.2105	1904.8472	2024.4840	2144.1207	2263.7574	2383.3941	2503.0309	2940.4362	3801.1377	4661.8391	5522.5406	6383.2421	7243.9436	8104.6451	9522.0038	11507.7199	14780.4014	22014.7530	29477.2771	38437.4414	44373.1461	57528.7830	83480.9076	83046.2242	74818.5456	66590.8671	58363.1885	50135.5100	28547.3041	19876.0623	11664.1316	5378.4096	4179.1200	2979.8305	2132.7601	2189.6016	2246.4432	2303.2847	2360.1263	2416.9678	2473.8094	2511.6106	2513.4857	2515.3607	2517.2358	2519.1109	2520.9860	2522.8611	2524.7362	2526.6111	2528.4861	2530.3611	2532.2361	2534.1111	2535.9860	2537.8610	2539.7360	2541.6110	2543.4860	2545.3609	2547.2359	2549.1109	2550.9859	2552.8609	2554.7358	2556.6108	2558.4858	2560.3608	2562.2358	2564.1108	2565.9857	2567.8607	2569.7357	2571.6107	2573.4857	2575.3606	2577.2356	2579.1106	2580.9856	2582.8606	2584.7355	2586.6105	2588.4855	2590.3605	2592.2356	2594.1107	2595.9858	2597.8608	2599.7359	2601.6110	2603.4861	2605.3611	2607.2361	2609.1111	2610.9860	2612.8610	2614.7360	2616.6110	2618.4860	2620.3609	2622.2359	2624.1109	2625.9859	2627.8609	2629.7358	2620.5807	2609.9612	2599.3418	2588.7223	2578.1028	2567.4833	2556.8639	2577.4525	2604.3789	2631.3053	2658.2317	2685.1581	2712.0845	2739.0109	2736.6178	2725.9358	2715.2538	2704.5719	2693.8899	2683.2079	2672.5259	2596.7586	2496.6735	2396.5885	2296.5035	2196.4185	2096.3335	1996.2485	2064.6881	2213.6052	2362.5223	2511.4394	2660.3565	2809.2737	2940.4597	2903.1264	2865.7931	2828.4598	2791.1265	2753.7931	2716.4598	2708.4857	2710.3607	2712.2356	2714.1106	2715.9856	2717.8606	2719.7356	2708.0965	2690.5882	2673.0799	2655.5716	2638.0633	2620.5549	2603.0466	2609.6743	2629.5281	2649.3819	2669.2358	2689.0896	2708.9434	2728.7972	2685.5832	2599.3337	2513.0841	2426.8346	2340.5850	2254.3355	2168.0859	2181.7305	2330.4152	2479.1000	2627.7848	2776.4695	2925.1543	3073.8391	3034.8679	2988.3218	2941.7757	2895.2296	2848.6835	2802.1374	2772.4855	2753.4188	2734.3520	2715.2853	2696.2185	2677.1518	2658.0850	2611.0589	2542.3837	2473.7084	2405.0332	2336.3580	2267.6827	2199.0075	2217.1211	2368.4986	2519.8762	2671.2538	
0.5700	2556.9907	2556.9907	2608.1210	3015.2093	3422.2976	3829.3859	3566.5519	3245.4639	2924.3759	2603.2878	2282.1998	1961.1118	1640.0237	1499.8099	1508.7843	1517.7586	1526.7330	1535.7074	1544.6817	1553.6561	1620.1616	1699.5363	1778.9110	1858.2857	1937.6604	2017.0351	2091.1140	2009.0335	1926.9531	1844.8726	1762.7921	1680.7116	1598.6312	1564.1865	1565.8539	1567.5213	1569.1886	1570.8560	1572.5234	1574.1908	1619.0580	1688.7779	1758.4979	1828.2178	1897.9378	1967.6577	2037.3777	2001.8275	1937.6840	1873.5406	1809.3971	1745.2537	1681.1103	1616.9668	1582.2634	1589.2310	1596.1986	1603.1662	1610.1338	1617.1015	1624.0691	1651.2241	1700.2487	1749.2733	1798.2980	1847.3226	1896.3472	1945.3719	1936.8050	1894.6460	1852.4870	1810.3280	1768.1690	1726.0101	1683.8511	1680.9341	1742.8101	1804.6861	1866.5622	1928.4382	1990.3142	2052.1902	2051.5422	1995.0913	1938.6404	1882.1894	1825.7385	1769.2875	1712.8366	1664.5767	1660.4984	1656.4200	1652.3416	1648.2633	1644.1849	1640.1066	1649.4257	1705.5880	1761.7503	1817.9126	1874.0749	1930.2372	1986.3995	2003.4481	1955.0283	1906.6085	1858.1887	1809.7690	1761.3492	1712.9294	1679.8505	1759.6990	1839.5475	1919.3960	1999.2445	2079.0930	2158.9415	2196.0331	2117.9906	2039.9481	1961.9056	1883.8631	1805.8206	1727.7781	1649.7356	1716.4669	1799.4989	1882.5309	1965.5629	2048.5950	2131.6270	2189.1377	2120.2569	2051.3761	1982.4953	1913.6144	1844.7336	1775.8528	1706.9720	1698.7871	1706.1574	1713.5277	1720.8980	1728.2683	1735.6386	1743.0089	1776.0541	1813.2097	1850.3653	1887.5209	1924.6765	1961.8321	1998.6167	2007.6705	2016.7243	2025.7781	2034.8319	2043.8857	2052.9395	2061.9933	2071.0471	2080.1009	2089.1547	2098.2085	2107.2623	2116.3161	2125.3699	2079.7589	2028.7679	1977.7769	1926.7858	1875.7948	1824.8038	1773.8128	1807.0889	1884.6323	1962.1757	2039.7190	2117.2624	2194.8058	2272.3492	2229.4699	2157.8277	2086.1854	2014.5432	1942.9009	1871.2587	1799.6165	1787.1865	1851.6018	1916.0172	1980.4325	2044.8479	2109.2632	2173.6786	2185.7197	2145.6374	2105.5551	2065.4728	2025.3905	1985.3083	1945.2260	1914.2771	1901.7050	1889.1329	1876.5609	1863.9888	1851.4167	1838.8446	1853.1440	1908.0881	1963.0322	2017.9763	2072.9204	2127.8645	2182.8086	2163.5131	2083.3780	2003.2428	1923.1076	1842.9724	1762.8373	1682.7021	1723.5208	2053.1211	2382.7213	2712.3215	3041.9218	3371.5220	3701.1222	4517.4632	5937.4326	7357.4020	8777.3714	10197.3408	11929.5004	14084.3809	18489.2838	26126.6750	36727.2596	72190.9491	279408.3393	486625.7294	120076.1806	81861.5706	32452.3651	23051.7083	2592.2894	2598.5389	2604.5812	2610.4586	2615.1968	2617.3663	2619.5358	2621.7052	2623.8747	2626.0442	2628.1510	2630.0260	2631.9009	2633.7759	2635.6509	2637.5259	2639.4009	2637.2308	2614.0128	2590.7947	2567.5766	2544.3585	2521.1404	2497.9223	2471.3152	2417.1761	2363.0369	2308.8978	2254.7586	2200.6195	2146.4803	2102.7299	2227.7075	2352.6851	2477.6627	2602.6403	2727.6179	2852.5955	2976.5145	2936.0816	2895.6486	2855.2157	2814.7828	2774.3499	2733.9170	2693.4840	2693.4468	2695.3219	2697.1970	2699.0721	2700.9472	2702.8222	2704.6973	2686.9954	2667.2049	2647.4144	2627.6239	2607.8335	2588.0430	2550.3671	2475.0320	2399.6969	2324.3617	2249.0266	2173.6915	2098.3564	2228.1265	2363.0264	2497.9263	2632.8262	2767.7261	2902.6260	3037.5259	3009.4878	2968.0480	2926.6081	2885.1682	2843.7284	2802.2885	2760.8487	2757.1699	2759.0143	2760.8586	2762.7029	2764.5473	2766.3916	2768.2359	2754.2372	2733.5645	2712.8917	2692.2189	2671.5462	2650.8734	2616.6705	2539.5279	2462.3853	2385.2427	2308.1002	2230.9576	2153.8150	2268.8487	2406.8609	2544.8732	2682.8854	2820.8976	2958.9099	3096.9221	3066.2350	3003.7966	2941.3581	2878.9196	2816.4812	2754.0427	2691.6042	2622.9811	2552.7139	2482.4466	2412.1794	2341.9122	2271.6450	2201.3778	2366.4167	2674.9424	2983.4681	3291.9938	3600.5195	3909.0452	4170.3030	4178.1422	4185.9813	4193.8205	4201.6597	4209.4989	
