Data from https://doi.org/10.1038/s41467-019-09730-9
Specific heat capacity (J/kg/K) at different applied pressures (bar), upon heating.
IMPORTANT NOTE: The specific heat capacity for different applied pressures
is extracted from the graphs of entropy change and calculated via the relation
cp = T*(ds/dT). This means that the error in the values can be quite big and one
should keep in mind that the position, rather than the absolute value of the
specific heat capacity is accurate. The most accurate values for the specific
heat capacity is at zero applied pressure.

0.0	280.0000	280.2500	280.5000	280.7500	281.0000	281.2500	281.5000	281.7500	282.0000	282.2500	282.5000	282.7500	283.0000	283.2500	283.5000	283.7500	284.0000	284.2500	284.5000	284.7500	285.0000	285.2500	285.5000	285.7500	286.0000	286.2500	286.5000	286.7500	287.0000	287.2500	287.5000	287.7500	288.0000	288.2500	288.5000	288.7500	289.0000	289.2500	289.5000	289.7500	290.0000	290.2500	290.5000	290.7500	291.0000	291.2500	291.5000	291.7500	292.0000	292.2500	292.5000	292.7500	293.0000	293.2500	293.5000	293.7500	294.0000	294.2500	294.5000	294.7500	295.0000	295.2500	295.5000	295.7500	296.0000	296.2500	296.5000	296.7500	297.0000	297.2500	297.5000	297.7500	298.0000	298.2500	298.5000	298.7500	299.0000	299.2500	299.5000	299.7500	300.0000	300.2500	300.5000	300.7500	301.0000	301.2500	301.5000	301.7500	302.0000	302.2500	302.5000	302.7500	303.0000	303.2500	303.5000	303.7500	304.0000	304.2500	304.5000	304.7500	305.0000	305.2500	305.5000	305.7500	306.0000	306.2500	306.5000	306.7500	307.0000	307.2500	307.5000	307.7500	308.0000	308.2500	308.5000	308.7500	309.0000	309.2500	309.5000	309.7500	310.0000	310.2500	310.5000	310.7500	311.0000	311.2500	311.5000	311.7500	312.0000	312.2500	312.5000	312.7500	313.0000	313.2500	313.5000	313.7500	314.0000	314.2500	314.5000	314.7500	315.0000	315.2500	315.5000	315.7500	316.0000	316.2500	316.5000	316.7500	317.0000	317.2500	317.5000	317.7500	318.0000	318.2500	318.5000	318.7500	319.0000	319.2500	319.5000	319.7500	320.0000	320.2500	320.5000	320.7500	321.0000	321.2500	321.5000	321.7500	322.0000	322.2500	322.5000	322.7500	323.0000	323.2500	323.5000	323.7500	324.0000	324.2500	324.5000	324.7500	325.0000	325.2500	325.5000	325.7500	326.0000	326.2500	326.5000	326.7500	327.0000	327.2500	327.5000	327.7500	328.0000	328.2500	328.5000	328.7500	329.0000	329.2500	329.5000	329.7500	330.0000	330.2500	330.5000	330.7500	331.0000	331.2500	331.5000	331.7500	332.0000	332.2500	332.5000	332.7500	333.0000	333.2500	333.5000	333.7500	334.0000	334.2500	334.5000	334.7500	335.0000	335.2500	335.5000	335.7500	336.0000	336.2500	336.5000	336.7500	337.0000	337.2500	337.5000	337.7500	338.0000	338.2500	338.5000	338.7500	339.0000	339.2500	339.5000	339.7500	340.0000	340.2500	340.5000	340.7500	341.0000	341.2500	341.5000	341.7500	342.0000	342.2500	342.5000	342.7500	343.0000	343.2500	343.5000	343.7500	344.0000	344.2500	344.5000	344.7500	345.0000	345.2500	345.5000	345.7500	346.0000	346.2500	346.5000	346.7500	347.0000	347.2500	347.5000	347.7500	348.0000	348.2500	348.5000	348.7500	349.0000	349.2500	349.5000	349.7500	350.0000	350.2500	350.5000	350.7500	351.0000	351.2500	351.5000	351.7500	352.0000	352.2500	352.5000	352.7500	353.0000	353.2500	353.5000	353.7500	354.0000	354.2500	354.5000	354.7500	355.0000	355.2500	355.5000	355.7500	356.0000	356.2500	356.5000	356.7500	357.0000	357.2500	357.5000	357.7500	358.0000	358.2500	358.5000	358.7500	359.0000	359.2500	359.5000	359.7500	360.0000	360.2500	360.5000	360.7500	361.0000	361.2500	361.5000	361.7500	362.0000	362.2500	362.5000	362.7500	363.0000	363.2500	363.5000	363.7500	364.0000	364.2500	364.5000	364.7500	365.0000	365.2500	365.5000	365.7500	366.0000	366.2500	366.5000	366.7500	367.0000	367.2500	367.5000	367.7500	368.0000	368.2500	368.5000	368.7500	369.0000	369.2500	369.5000	369.7500	370.0000	370.2500	370.5000	370.7500	371.0000	371.2500	371.5000	371.7500	372.0000	372.2500	372.5000	372.7500	373.0000	373.2500	373.5000	373.7500	374.0000	374.2500	374.5000	374.7500	
0.0000	1680.6000	1681.9700	1682.6000	1683.6600	1685.1400	1686.3000	1687.3800	1689.3200	1690.5700	1691.9100	1692.9400	1694.6300	1695.5300	1696.6400	1698.0300	1699.1200	1699.8100	1701.6200	1703.6700	1704.9700	1706.4500	1706.8400	1708.9800	1710.7900	1712.8100	1712.9100	1712.5500	1713.9300	1713.0700	1714.2300	1716.1500	1719.3500	1720.7200	1722.3700	1723.6700	1727.4500	1730.1000	1731.2600	1732.8600	1734.4400	1735.7500	1737.3800	1738.4200	1740.3400	1742.1100	1743.1200	1746.1500	1747.7400	1749.0000	1750.2100	1751.8900	1753.0000	1755.0400	1756.6500	1758.1400	1760.2800	1762.1000	1763.8000	1764.1700	1765.6600	1767.5700	1769.3800	1771.0900	1773.5100	1774.7000	1776.1200	1777.9400	1779.9300	1781.4600	1783.2700	1784.7900	1786.7200	1788.8800	1790.3400	1793.1700	1794.8800	1796.8800	1798.9900	1801.2300	1804.3100	1806.0900	1807.5700	1809.3200	1811.2700	1813.7800	1814.8500	1816.5600	1818.4900	1820.4300	1821.9400	1823.7900	1825.9400	1824.5600	1826.8200	1827.9000	1830.3200	1832.9400	1835.4100	1836.5100	1838.1100	1839.7300	1842.1600	1843.7700	1845.5800	1847.5500	1847.9500	1849.6950	1851.9600	1853.6300	1855.1850	1857.1800	1859.0400	1861.2000	1863.4700	1864.9700	1867.5400	1869.4150	1870.4950	1872.0500	1873.5700	1875.4600	1878.1250	1879.8250	1881.2850	1883.0100	1884.1300	1886.1250	1888.5700	1889.3950	1892.3800	1893.9750	1896.0500	1906.8950	1964.7600	2050.3200	2144.3600	2278.1850	2450.5850	2652.1200	2901.0700	3232.3600	3628.4700	4108.4700	4630.7250	5197.9100	5752.4500	6323.5200	6850.0800	7343.8600	7852.4900	8310.8000	8786.4800	9250.5200	9654.9100	10032.4200	10416.9000	10794.9850	11159.6800	11481.5550	11723.9700	11941.0800	12230.0450	12542.7950	12831.1200	13105.5400	13351.2000	13603.0800	13832.4000	14038.1300	14244.1200	14403.1800	14550.8100	14662.3400	14730.2500	14762.5600	14753.8050	14714.9100	14643.8900	14553.4650	14416.1300	14234.3250	13995.8450	13698.8050	13319.7200	12841.3850	12365.7100	11866.3500	11388.3500	10851.7850	10269.0500	9669.0000	9064.4200	8462.6900	7895.6500	7383.1800	6921.8733	6497.5100	6114.4400	5754.4500	5440.7650	5157.3200	4894.1700	4655.1650	4438.3350	4257.8150	4077.2750	3907.6400	3770.2200	3637.1400	3517.3700	3422.5000	3326.5700	3254.4400	3173.3400	3109.7500	3055.9400	3008.4050	2962.6000	2920.1250	2892.4800	2858.3200	2834.5950	2805.3100	2788.1600	2771.1900	2751.3300	2741.4200	2722.8250	2711.9450	2701.1400	2692.4650	2685.4800	2678.4200	2672.1900	2665.1600	2659.0200	2652.7700	2646.8700	2640.6600	2634.6900	2628.9700	2622.7000	2617.2300	2611.2000	2606.1200	2601.3000	2596.3000	2591.7050	2586.8000	2582.6000	2578.3600	2574.0450	2570.1000	2566.0000	2561.8650	2562.7800	2565.4600	2567.9300	2570.5250	2571.8050	2574.7850	2576.6200	2578.4950	2581.0650	2582.8750	2584.8300	2587.2400	2589.1800	2590.4250	2592.3950	2595.8950	2597.4000	2598.6450	2599.8500	2601.0050	2602.0450	2602.8400	2604.5000	2606.3150	2607.2800	2607.9000	2720.5000	2687.7650	2676.3050	2670.8400	2670.4600	2670.1550	2670.4650	2670.9600	2670.6650	2671.1450	2671.9600	2672.5350	2672.9950	2673.9750	2674.1700	2675.3550	2675.9800	2675.8250	2676.8200	2677.9000	2681.8900	2681.8900	2682.6200	2683.6400	2684.8400	2685.2500	2686.2500	2687.6500	2688.3200	2689.8000	2691.3900	2692.8600	2693.5900	2693.8000	2696.5700	2697.3800	2698.4100	2699.2700	2700.1800	2700.1800	2700.1800	2700.1800	2700.1800	2700.1800	2700.1800	2700.1800	2700.1800	2700.1800	2700.1800	2700.1800	2700.1800	2700.1800	2700.1800	2700.1800	2700.1800	2700.1800	2700.1800	2700.1800	2700.1800	2700.1800	2700.1800	2700.1800	2700.1800	2700.1800	2700.1800	2700.1800	2700.1800	2700.1800	2700.1800	2700.1800	2700.1800	2700.1800	2700.1800	2700.1800	2700.1800	2700.1800	2700.1800	2700.1800	2700.1800	2700.1800	2700.1800	2700.1800	2700.1800	2700.1800	2700.1800	2700.1800	2700.1800	2700.1800	2700.1800	2700.1800	2700.1800	2700.1800	2700.1800	2700.1800	2700.1800	2700.1800	2700.1800	2700.1800	2700.1800	
0.0900	1686.5810	1686.5810	1686.5810	1686.7901	1688.2883	1689.7864	1691.2845	1692.7827	1694.2808	1695.7789	1697.2770	1698.7750	1700.2731	1701.7711	1703.2691	1698.8822	1685.7846	1672.6870	1659.5895	1646.4919	1633.3943	1635.9200	1652.0138	1668.1077	1684.2016	1700.2954	1716.3893	1722.7449	1724.2430	1725.7412	1727.2393	1728.7375	1730.2356	1731.7337	1733.2319	1734.7300	1736.2282	1737.7263	1739.2244	1740.7226	1742.2207	1743.7189	1745.2170	1746.7151	1748.2133	1749.7113	1751.2093	1752.7074	1754.2054	1755.7035	1757.2015	1758.6997	1760.1978	1761.6959	1763.1941	1764.6922	1766.1904	1767.6885	1769.1866	1770.6848	1772.1829	1773.6811	1775.1792	1776.6773	1778.1755	1779.6736	1781.1718	1782.6699	1784.1680	1785.6662	1787.1643	1788.6625	1790.1606	1791.6587	1793.1569	1794.6550	1796.1532	1797.6513	1799.1494	1800.6476	1802.1457	1803.6439	1805.1420	1806.6401	1808.1383	1809.6364	1826.4235	1843.4151	1860.4067	1877.3983	1894.3899	1907.7125	1893.7160	1879.7195	1865.7231	1851.7266	1837.7301	1827.6135	1829.1116	1830.6098	1832.1079	1833.6061	1835.1042	1836.6023	1838.1005	1839.5986	1841.0968	1842.5949	1844.0930	1845.5912	1847.0893	1848.5875	1850.0856	1851.5837	1853.0819	1854.5800	1856.0782	1857.5763	1859.0744	1860.5726	1862.0707	1875.9797	1893.4219	1910.8641	1928.3063	1945.7485	1963.1907	1951.6028	1937.1579	1922.7130	1908.2681	1893.8231	1880.0478	1881.5460	1883.0441	1884.5422	1886.0404	1887.5385	1889.0367	1890.5348	1892.0329	1893.5311	1895.0292	1896.5274	1898.0255	1899.5236	1901.0218	1902.5199	1904.0181	1905.5162	1907.0143	1908.5125	1910.0106	1911.5088	1913.0069	1914.5050	1925.3475	1943.2391	1961.1307	1979.0224	1996.9140	2014.8056	2009.6815	1994.7872	1979.8928	1964.9985	1950.1042	1935.2098	2030.5138	2147.8150	2265.1163	2382.4176	2499.7189	2617.0202	3523.8425	4458.7919	5393.7412	6328.6906	7263.6400	8418.7035	11608.9212	14799.1389	18683.4394	24676.8996	30670.3598	29592.2729	27731.9492	25871.6254	25252.6494	27388.4271	30457.7309	30558.6664	30962.4157	45907.1653	45028.4984	34582.6568	29290.1259	28746.8799	28294.5057	31193.3755	34092.2452	36991.1150	19224.1912	9429.2631	9530.5068	9605.5167	8216.1998	6826.8830	5810.2607	5180.3052	4550.3496	3920.3941	3549.4691	3186.5554	2823.6417	2460.7280	2233.3826	2362.3713	2491.3600	2620.3487	2749.3374	2878.3261	2913.4989	2882.6104	2851.7220	2820.8335	2789.9450	2759.0566	2735.8790	2719.2806	2702.6822	2686.0837	2669.4853	2658.3867	2655.3748	2652.3629	2649.3510	2646.3391	2643.3272	2633.9276	2604.6936	2575.4597	2546.2257	2516.9917	2487.7578	2481.9405	2515.0513	2548.1621	2581.2730	2614.3838	2647.4946	2648.8485	2619.3470	2589.8455	2560.3440	2530.8425	2501.3410	2512.0337	2545.4144	2578.7950	2612.1756	2645.5562	2678.9368	2663.6164	2633.8474	2604.0784	2574.3093	2544.5403	2514.7713	2542.2807	2575.9288	2609.5769	2643.2250	2676.8732	2708.2796	2678.2431	2648.2065	2618.1700	2588.1334	2558.0969	2526.9060	2489.9656	2453.0252	2416.0847	2379.1443	2342.2039	2327.5563	2365.1240	2402.6918	2440.2595	2477.8273	2515.3950	2543.4015	2547.3503	2551.2990	2555.2478	2559.1965	2563.1453	2584.1852	2618.5022	2652.8191	2687.1361	2721.4530	2755.7699	2744.9094	2714.2040	2683.4987	2652.7933	2622.0880	2591.3826	2614.6589	2649.2434	2683.8278	2718.4123	2752.9968	2787.5812	2759.3093	2728.3364	2697.3636	2666.3907	2635.4178	2610.4216	2645.2712	2680.1208	2714.9704	2749.8201	2784.6697	2788.3063	2682.8099	2577.3135	2471.8171	2366.3207	2260.8243	2219.0039	2293.1802	2367.3564	2441.5327	2515.7090	2589.8852	2636.5488	2675.4525	2714.3561	2753.2598	2792.1634	2831.0671	2826.3455	2794.7038	2763.0621	2731.4204	2699.7787	2668.1370	2692.5401	2735.5848	2778.6296	2821.6744	2864.7192	2907.7640	2838.2077	2753.6448	2669.0819	2584.5189	2499.9560	2433.8830	2437.3672	2440.8514	2444.3355	2447.8197	2451.3039	2454.7881	2529.9988	2608.9527	2687.9066	2766.8606	2845.8145	2893.8370	2861.5265	2829.2159	2796.9054	2764.5949	2732.2844	
0.2500	1686.5810	1686.5810	1686.5810	1686.7901	1688.2883	1689.7864	1691.2845	1692.7827	1694.2808	1695.7789	1697.2770	1698.7750	1700.2731	1701.7711	1703.2691	1704.7672	1706.2654	1707.7635	1709.2616	1710.7598	1712.2579	1705.9043	1692.7318	1679.5593	1666.3869	1653.2144	1640.0419	1646.4459	1662.6146	1678.7834	1694.9522	1711.1210	1727.2897	1731.7337	1733.2319	1734.7300	1736.2282	1737.7263	1739.2244	1740.7226	1742.2207	1743.7189	1745.2170	1746.7151	1748.2133	1749.7113	1751.2093	1752.7074	1754.2054	1755.7035	1757.2015	1758.6997	1760.1978	1761.6959	1763.1941	1764.6922	1766.1904	1767.6885	1769.1866	1770.6848	1772.1829	1773.6811	1775.1792	1776.6773	1778.1755	1779.6736	1781.1718	1782.6699	1784.1680	1785.6662	1787.1643	1788.6625	1790.1606	1791.6587	1793.1569	1794.6550	1796.1532	1797.6513	1799.1494	1800.6476	1802.1457	1803.6439	1805.1420	1806.6401	1808.1383	1809.6364	1826.4235	1843.4151	1860.4067	1877.3983	1894.3899	1907.7125	1893.7160	1879.7195	1865.7231	1851.7266	1837.7301	1827.6135	1829.1116	1830.6098	1832.1079	1833.6061	1835.1042	1836.6023	1838.1005	1839.5986	1841.0968	1842.5949	1844.0930	1845.5912	1847.0893	1848.5875	1850.0856	1851.5837	1853.0819	1854.5800	1856.0782	1857.5763	1859.0744	1860.5726	1862.0707	1875.9797	1893.4219	1910.8641	1928.3063	1945.7485	1963.1907	1937.0202	1906.5574	1876.0946	1845.6318	1815.1690	1786.7214	1804.2385	1821.7556	1839.2727	1856.7898	1874.3069	1891.8500	1909.5169	1927.1838	1944.8508	1962.5177	1980.1846	1987.9562	1973.2856	1958.6149	1943.9443	1929.2737	1914.6030	1907.0143	1908.5125	1910.0106	1911.5088	1913.0069	1914.5050	1925.3475	1943.2391	1961.1307	1979.0224	1996.9140	2014.8056	2009.6815	1994.7872	1979.8928	1964.9985	1950.1042	1935.2098	1933.9803	1935.4784	1936.9765	1938.4747	1939.9728	1941.4710	1959.0156	1977.1320	1995.2484	2013.3647	2031.4811	2046.3535	2031.2335	2016.1134	2000.9933	1985.8732	1970.7532	1959.4486	1960.9468	1962.4449	1963.9431	1965.4412	1966.9393	1968.4375	1969.9356	1971.4338	1972.9319	1974.4300	1975.9282	1985.7770	2004.1929	2022.6089	2041.0249	2059.4409	2077.8569	2075.1059	2059.6873	2044.2686	2028.8500	2013.4313	1998.0127	2008.3270	2026.8928	2045.4586	2064.0244	2082.5902	2101.1560	2089.3687	2073.7992	2058.2297	2042.6601	2027.0906	2011.2731	1984.0068	1956.7405	1929.4742	1902.2079	1874.9416	1893.5424	2165.6701	2437.7977	2709.9253	2982.0529	3254.1805	4442.6169	5765.5574	7088.4979	8411.4384	9734.3789	11708.2750	14497.3319	17286.3888	20075.4457	22864.5026	25653.5594	27216.2020	26837.8666	26900.4127	31732.2836	31836.4878	31940.6920	41880.2528	45481.5098	30395.1821	29238.8846	28082.5870	26497.4236	16785.2904	15673.7220	16896.6273	16802.8420	14997.9182	11786.0843	10030.0082	8820.0415	7575.2188	6292.3318	5033.5074	4484.2401	3934.9727	3385.7053	3076.9334	3046.8703	3016.8072	2986.7441	2956.6810	2926.6179	2840.9541	2739.0925	2637.2309	2535.3693	2433.5077	2331.6461	2385.6532	2498.2505	2610.8477	2723.4449	2836.0422	2940.4567	2837.7193	2734.9820	2632.2446	2529.5073	2426.7699	2324.0326	2435.5640	2549.0850	2662.6060	2776.1270	2889.6480	2928.4218	2794.4354	2660.4489	2526.4625	2392.4761	2258.4897	2171.4197	2221.5639	2271.7082	2321.8524	2371.9966	2422.1408	2493.1872	2580.2610	2667.3349	2754.4087	2841.4825	2928.5563	2893.7568	2806.2268	2718.6969	2631.1669	2543.6370	2456.1071	2481.2519	2566.9611	2652.6703	2738.3795	2824.0887	2909.7979	2818.4018	2719.9334	2621.4649	2522.9964	2424.5280	2326.0595	2357.3819	2400.8545	2444.3272	2487.7998	2531.2724	2574.8861	2621.3993	2667.9125	2714.4257	2760.9389	2807.4521	2815.8929	2755.9397	2695.9866	2636.0334	2576.0802	2516.1270	2505.5819	2604.8041	2704.0264	2803.2486	2902.4708	3001.6931	2970.1409	2858.9797	2747.8184	2636.6571	2525.4959	2414.3346	2366.0613	2364.4610	2362.8607	2361.2604	2359.6600	2358.0597	2466.1166	2588.3948	2710.6730	2832.9511	2955.2293	3073.6526	2971.8109	2869.9692	2768.1276	2666.2859	2564.4442	
0.3500	1686.9717	1686.9717	1686.9717	1686.9717	1688.2882	1689.7862	1691.2843	1692.7823	1694.2803	1695.3653	1657.1466	1618.9280	1580.7093	1542.4906	1504.2719	1477.6276	1520.6899	1563.7522	1606.8144	1649.8767	1692.9389	1713.7561	1715.2542	1716.7523	1718.2505	1719.7486	1721.2468	1722.7449	1724.2430	1725.7412	1727.2393	1728.7375	1730.2356	1731.7337	1733.2319	1734.7300	1736.2282	1737.7263	1739.2244	1740.7226	1742.2207	1743.7189	1745.2170	1746.7151	1748.2133	1749.7113	1751.2093	1752.7074	1754.2054	1755.7035	1757.2015	1758.6997	1760.1978	1761.6959	1763.1941	1764.6922	1766.1904	1767.6885	1769.1866	1770.6848	1772.1829	1773.6811	1775.1792	1776.6773	1778.1755	1779.6736	1781.1718	1782.6699	1784.1680	1785.6662	1787.1643	1788.6625	1790.1606	1791.6587	1793.1569	1794.6550	1796.1532	1797.6513	1799.1494	1800.6476	1802.1457	1803.6439	1805.1420	1806.6401	1808.1383	1809.6364	1811.1345	1812.6325	1814.1305	1815.6286	1817.1266	1823.2377	1863.6971	1904.1564	1944.6158	1985.0752	2025.5346	2036.6393	1959.8678	1883.0962	1806.3246	1729.5530	1652.7814	1595.9781	1683.4188	1770.8595	1858.3002	1945.7409	2033.1817	2035.7655	1958.2434	1880.7212	1803.1991	1725.6770	1648.1548	1618.5342	1665.2380	1711.9418	1758.6456	1805.3494	1852.0532	1894.6251	1936.0209	1977.4166	2018.8123	2060.2080	2101.6037	2071.9018	2035.2025	1998.5032	1961.8040	1925.1047	1888.4054	1888.5321	1898.9732	1909.4142	1919.8552	1930.2962	1940.7373	1934.8450	1927.4003	1919.9555	1912.5108	1905.0660	1898.0255	1899.5236	1901.0218	1902.5199	1904.0181	1905.5162	1907.0143	1908.5125	1910.0106	1911.5088	1913.0069	1914.5050	1916.0032	1917.5013	1918.9995	1920.4976	1921.9957	1923.4939	1937.1034	1966.0524	1995.0015	2023.9505	2052.8995	2081.8486	2079.3488	2053.3940	2027.4393	2001.4845	1975.5298	1949.5750	1942.9691	1944.4672	1945.9654	1947.4635	1948.9617	1950.4598	1951.9579	1953.4561	1954.9542	1956.4524	1957.9505	1959.4486	1946.7461	1933.5862	1920.4263	1907.2664	1894.1066	1883.9704	1900.8084	1917.6463	1934.4842	1951.3222	1968.1601	1989.9523	2016.8272	2043.7021	2070.5770	2097.4519	2124.3268	2119.4513	2095.5743	2071.6973	2047.8203	2023.9433	2000.0663	2001.8652	2011.8972	2021.9292	2031.9611	2041.9931	2052.0251	2046.8805	2039.8448	2032.8091	2025.7734	2018.7377	2011.8829	2013.3811	2014.8792	2016.3774	2017.8755	2019.3736	2024.8456	2052.2823	2079.7190	2107.1557	2134.5924	2162.0291	2177.1470	2161.3902	2145.6335	2129.8767	2114.1199	2098.3631	2086.1823	2078.9968	2071.8113	2064.6258	2057.4403	2050.2548	2062.2679	2090.0397	2117.8116	2145.5835	2173.3554	2201.1273	2464.4276	2838.1576	3211.8877	3585.6178	3959.3479	4333.0780	4706.8080	5080.5381	5454.2682	5827.9983	6201.7284	6575.4584	6949.1885	7322.9186	7696.6487	8070.3788	8444.1088	12597.5223	16790.6576	16890.2625	15040.2445	21363.3504	24476.8861	19044.9492	20691.0733	22337.1974	31903.1413	55646.9771	27022.5150	28441.8871	29861.2592	31280.6312	22854.6834	32868.4531	29039.8710	22416.3521	33054.7074	15918.0230	14332.8219	20897.8550	16199.5701	6012.9028	6650.7126	7288.5223	6139.4262	4713.8342	3734.0386	3403.2313	3072.4240	2741.6167	2410.8095	2425.1247	2539.2924	2653.4600	2767.6277	2881.7953	2977.0074	2872.7927	2768.5780	2664.3633	2560.1486	2455.9339	2360.4038	2475.4952	2590.5866	2705.6780	2820.7694	2935.8609	2973.7173	2868.6405	2763.5638	2658.4870	2553.4103	2448.3335	2399.7420	2480.9622	2562.1825	2643.4027	2724.6229	2805.8432	2791.6934	2717.6890	2643.6846	2569.6802	2495.6758	2421.6714	2391.0321	2393.4824	2395.9328	2398.3831	2400.8334	2403.2838	2486.1075	2603.5083	2720.9092	2838.3100	2955.7108	3070.7752	2963.5190	2856.2627	2749.0065	2641.7502	2534.4940	2427.2377	2537.2609	2655.5855	2773.9102	2892.2348	3010.5594	3057.0477	2913.5785	2770.1093	2626.6401	2483.1709	2339.7016	2237.4067	2275.4817	2313.5567	2351.6317	2389.7067	2427.7818	2495.1475	2614.8578	2734.5680	2854.2783	2973.9886	3093.6988	3038.4093	2896.9260	2755.4426	
0.5700	1686.5810	1686.5810	1686.5810	1686.7901	1688.2883	1689.7864	1691.2845	1692.7827	1694.2808	1699.7225	1715.7404	1731.7583	1747.7761	1763.7940	1779.8119	1778.2356	1750.6172	1722.9988	1695.3804	1667.7620	1640.1436	1643.7717	1674.5362	1705.3007	1736.0652	1766.8297	1797.5942	1799.0439	1785.8714	1772.6989	1759.5264	1746.3539	1733.1815	1719.8892	1706.5669	1693.2446	1679.9223	1666.6000	1653.2777	1681.4276	1712.6415	1743.8554	1775.0694	1806.2833	1833.7318	1805.3663	1777.0007	1748.6352	1720.2697	1691.9041	1672.2722	1688.7406	1705.2090	1721.6774	1738.1458	1754.6142	1771.1316	1787.7498	1804.3680	1820.9862	1837.6045	1854.2227	1849.9952	1821.1783	1792.3614	1763.5445	1734.7276	1705.9107	1713.0025	1744.9655	1776.9286	1808.8916	1840.8546	1872.8176	1860.6323	1831.5157	1802.3992	1773.2827	1744.1661	1715.0496	1738.4000	1770.6626	1802.9252	1835.1879	1867.4505	1899.7131	1871.1131	1841.6989	1812.2848	1782.8706	1753.4564	1729.5369	1746.5296	1763.5224	1780.5151	1797.5079	1814.5006	1827.6135	1829.1116	1830.6098	1832.1079	1833.6061	1835.1042	1842.6134	1859.8309	1877.0484	1894.2658	1911.4833	1928.7008	1929.7462	1915.5250	1901.3038	1887.0826	1872.8614	1858.6402	1854.5800	1856.0782	1857.5763	1859.0744	1860.5726	1862.0707	1863.5689	1865.0670	1866.5651	1868.0633	1869.5614	1871.0596	1872.5576	1874.0557	1875.5537	1877.0517	1878.5498	1880.7238	1898.3158	1915.9078	1933.4998	1951.0918	1968.6838	1980.6751	1966.0794	1951.4837	1936.8879	1922.2922	1907.6965	1898.0255	1899.5236	1901.0218	1902.5199	1904.0181	1905.5162	1907.0143	1908.5125	1910.0106	1911.5088	1913.0069	1914.5050	1925.3475	1943.2391	1961.1307	1979.0224	1996.9140	2014.8056	2009.6815	1994.7872	1979.8928	1964.9985	1950.1042	1935.2098	1933.9803	1935.4784	1936.9765	1938.4747	1939.9728	1941.4710	1959.0156	1977.1320	1995.2484	2013.3647	2031.4811	2044.7243	2012.9111	1981.0979	1949.2847	1917.4715	1885.6583	1869.1761	1904.1354	1939.0947	1974.0540	2009.0132	2043.9725	2066.8594	2068.4324	2070.0054	2071.5785	2073.1515	2074.7246	2067.9470	2052.6022	2037.2574	2021.9126	2006.5678	1991.2230	1986.4151	1987.9131	1989.4112	1990.9092	1992.4072	1993.9053	2008.3270	2026.8928	2045.4586	2064.0244	2082.5902	2101.1560	2089.3687	2073.7992	2058.2297	2042.6601	2027.0906	2011.8829	2013.3811	2014.8792	2016.3774	2017.8755	2019.3736	2023.5210	2042.3115	2061.1020	2079.8925	2098.6830	2117.4736	2126.4005	2110.6063	2094.8120	2079.0178	2063.2236	2047.4293	2046.1263	2065.0667	2084.0070	2102.9473	2121.8877	2140.8280	2140.6104	2124.6675	2108.7245	2092.7815	2076.8386	2060.8956	2080.7798	2117.4620	2154.1441	2190.8263	2227.5084	2264.1906	2229.3179	2177.9651	2126.6124	2075.2596	2023.9068	1972.5540	2021.3514	2076.0001	2130.6488	2185.2975	2239.9462	2289.1561	2272.9873	2256.8186	2240.6498	2224.4810	2208.3122	2192.1122	2175.7936	2159.4750	2143.1564	2126.8378	2110.5193	2100.2726	2101.7708	2103.2689	2104.7670	2106.2652	2107.7633	2117.7908	2137.3291	2156.8673	2176.4056	2195.9438	2215.4821	2202.2631	2167.6035	2132.9438	2098.2841	2063.6245	2028.9648	2029.9694	2043.7404	2057.5113	2071.2822	2085.0531	2098.8240	2458.6448	2870.9070	3283.1692	3695.4315	4107.6937	4519.9559	4356.2917	4052.9395	3749.5874	3446.2352	3376.9679	3838.5989	4300.2299	4761.8609	5223.4919	6871.5803	10715.3591	14163.7317	10099.3860	12056.2957	15692.8196	18123.7402	16655.0972	19003.7278	27560.9138	16608.2957	25614.0820	44457.4485	32872.6583	24311.9292	25606.4451	42109.3008	38275.5074	20255.9689	24621.9486	32356.3186	38562.3256	30203.5610	21384.9424	12044.2874	7124.1487	5609.6915	4419.7041	4333.3711	4247.0380	4160.7050	3891.9053	3528.0987	3164.2920	2800.4854	2436.6788	2503.0694	2585.8962	2668.7229	2751.5497	2834.3764	2883.7495	2844.6605	2805.5714	2766.4823	2727.3933	2688.3042	2668.3721	2713.7491	2759.1261	2804.5032	2849.8802	2895.2572	2875.4512	2799.6701	2723.8890	2648.1080	2572.3269	2496.5459	2454.5458	2457.6923	2460.8389	
