Data from https://doi.org/10.1002/adma.202008076
Upon cooling
Temperature(K)	Heat capacity(J/kg/K)

250	963.45
250.1	963.73
250.2	964.02
250.3	964.31
250.4	964.6
250.5	964.88
250.6	965.17
250.7	965.46
250.8	965.75
250.9	966.04
251	966.32
251.1	966.61
251.2	966.9
251.3	967.19
251.4	967.48
251.5	967.76
251.6	968.05
251.7	968.34
251.8	968.63
251.9	968.92
252	969.2
252.1	969.49
252.2	969.78
252.3	970.07
252.4	970.36
252.5	970.64
252.6	970.93
252.7	971.22
252.8	971.51
252.9	971.8
253	972.08
253.1	972.37
253.2	972.66
253.3	972.95
253.4	973.24
253.5	973.52
253.6	973.81
253.7	974.1
253.8	974.39
253.9	974.68
254	974.96
254.1	975.25
254.2	975.54
254.3	975.83
254.4	976.12
254.5	976.4
254.6	976.69
254.7	976.98
254.8	977.27
254.9	977.56
255	977.84
255.1	978.13
255.2	978.42
255.3	978.71
255.4	979
255.5	979.28
255.6	979.57
255.7	979.86
255.8	980.15
255.9	980.44
256	980.72
256.1	981.01
256.2	981.3
256.3	981.59
256.4	981.88
256.5	982.16
256.6	982.45
256.7	982.74
256.8	983.03
256.9	983.32
257	983.6
257.1	983.89
257.2	984.18
257.3	984.47
257.4	984.76
257.5	985.04
257.6	985.33
257.7	985.62
257.8	985.91
257.9	986.2
258	986.48
258.1	986.77
258.2	987.06
258.3	987.35
258.4	987.64
258.5	987.92
258.6	988.21
258.7	988.5
258.8	988.79
258.9	989.08
259	989.36
259.1	989.65
259.2	989.94
259.3	990.23
259.4	990.52
259.5	990.8
259.6	991.09
259.7	991.38
259.8	991.67
259.9	991.96
260	992.24
260.1	992.53
260.2	992.82
260.3	993.11
260.4	993.4
260.5	993.68
260.6	993.97
260.7	994.26
260.8	994.55
260.9	994.84
261	995.12
261.1	995.41
261.2	995.7
261.3	995.99
261.4	996.28
261.5	996.56
261.6	996.85
261.7	997.14
261.8	997.43
261.9	997.72
262	998
262.1	998.29
262.2	998.58
262.3	998.87
262.4	999.16
262.5	999.44
262.6	999.73
262.7	1000.02
262.8	1000.31
262.9	1000.6
263	1000.88
263.1	1001.17
263.2	1001.46
263.3	1001.75
263.4	1002.04
263.5	1002.32
263.6	1002.61
263.7	1002.9
263.8	1003.19
263.9	1003.48
264	1003.76
264.1	1004.05
264.2	1004.34
264.3	1004.63
264.4	1004.92
264.5	1005.2
264.6	1005.49
264.7	1005.78
264.8	1006.07
264.9	1006.36
265	1006.64
265.1	1006.93
265.2	1007.22
265.3	1007.51
265.4	1007.8
265.5	1008.08
265.6	1008.37
265.7	1008.66
265.8	1008.95
265.9	1009.24
266	1009.52
266.1	1009.81
266.2	1010.1
266.3	1010.39
266.4	1010.68
266.5	1010.96
266.6	1011.25
266.7	1011.54
266.8	1011.83
266.9	1012.12
267	1012.4
267.1	1012.69
267.2	1012.98
267.3	1013.27
267.4	1013.56
267.5	1013.84
267.6	1014.13
267.7	1014.42
267.8	1014.71
267.9	1015
268	1015.28
268.1	1015.57
268.2	1015.86
268.3	1016.15
268.4	1016.44
268.5	1016.72
268.6	1017.01
268.7	1017.3
268.8	1017.59
268.9	1017.88
269	1018.16
269.1	1018.45
269.2	1018.74
269.3	1019.03
269.4	1019.32
269.5	1019.6
269.6	1019.89
269.7	1020.18
269.8	1020.47
269.9	1020.76
270	1021.04
270.1	1021.33
270.2	1021.62
270.3	1021.91
270.4	1022.2
270.5	1022.48
270.6	1022.77
270.7	1023.06
270.8	1023.35
270.9	1023.64
271	1023.92
271.1	1024.21
271.2	1024.5
271.3	1024.79
271.4	1025.08
271.5	1025.36
271.6	1025.65
271.7	1025.94
271.8	1026.23
271.9	1026.52
272	1026.8
272.1	1027.09
272.2	1027.38
272.3	1027.67
272.4	1027.96
272.5	1028.24
272.6	1028.53
272.7	1028.82
272.8	1029.11
272.9	1029.4
273	1029.68
273.1	1029.97
273.2	1030.26
273.3	1030.55
273.4	1030.84
273.5	1031.12
273.6	1031.41
273.7	1031.7
273.8	1031.99
273.9	1032.28
274	1032.56
274.1	1032.85
274.2	1033.14
274.3	1033.43
274.4	1033.72
274.5	1034
274.6	1034.29
274.7	1034.58
274.8	1034.87
274.9	1035.16
275	1035.44
275.1	1035.73
275.2	1036.02
275.3	1036.31
275.4	1036.6
275.5	1036.88
275.6	1037.17
275.7	1037.46
275.8	1037.75
275.9	1038.04
276	1038.32
276.1	1038.61
276.2	1038.9
276.3	1039.19
276.4	1039.48
276.5	1039.76
276.6	1040.05
276.7	1040.34
276.8	1040.63
276.9	1040.92
277	1041.2
277.1	1041.49
277.2	1041.78
277.3	1042.07
277.4	1042.36
277.5	1042.64
277.6	1042.93
277.7	1043.22
277.8	1043.51
277.9	1043.8
278	1044.08
278.1	1044.37
278.2	1044.66
278.3	1044.95
278.4	1045.24
278.5	1045.52
278.6	1045.81
278.7	1046.1
278.8	1046.39
278.9	1046.68
279	1046.96
279.1	1047.25
279.2	1047.54
279.3	1047.83
279.4	1048.12
279.5	1048.4
279.6	1048.69
279.7	1048.98
279.8	1049.27
279.9	1049.56
280	1049.84
280.1	1050.13
280.2	1050.42
280.3	1050.71
280.4	1051
280.5	1051.28
280.6	1051.57
280.7	1051.86
280.8	1052.15
280.9	1052.44
281	1052.72
281.1	1053.01
281.2	1053.3
281.3	1053.59
281.4	1053.88
281.5	1054.16
281.6	1054.45
281.7	1054.74
281.8	1055.03
281.9	1055.32
282	1055.6
282.1	1055.89
282.2	1056.18
282.3	1056.47
282.4	1056.76
282.5	1057.04
282.6	1057.33
282.7	1057.62
282.8	1057.91
282.9	1058.2
283	1058.48
283.1	1058.77
283.2	1059.06
283.3	1059.35
283.4	1059.64
283.5	1059.92
283.6	1060.21
283.7	1060.5
283.8	1060.79
283.9	1061.08
284	1061.36
284.1	1061.65
284.2	1061.94
284.3	1062.23
284.4	1062.52
284.5	1062.8
284.6	1063.09
284.7	1063.38
284.8	1063.67
284.9	1063.96
285	1064.24
285.1	1064.53
285.2	1064.82
285.3	1065.11
285.4	1065.4
285.5	1065.68
285.6	1065.97
285.7	1066.26
285.8	1066.55
285.9	1066.84
286	1067.12
286.1	1067.41
286.2	1067.7
286.3	1067.99
286.4	1068.28
286.5	1068.56
286.6	1068.85
286.7	1069.14
286.8	1069.43
286.9	1069.72
287	1070
287.1	1070.29
287.2	1070.58
287.3	1070.87
287.4	1071.16
287.5	1071.44
287.6	1071.73
287.7	1072.02
287.8	1072.31
287.9	1072.6
288	1072.88
288.1	1073.17
288.2	1073.46
288.3	1073.75
288.4	1074.04
288.5	1074.32
288.6	1074.61
288.7	1074.9
288.8	1075.19
288.9	1075.48
289	1075.76
289.1	1076.05
289.2	1076.34
289.3	1076.63
289.4	1076.92
289.5	1077.2
289.6	1077.49
289.7	1077.78
289.8	1078.07
289.9	1078.36
290	1078.64
290.1	1078.93
290.2	1079.22
290.3	1079.51
290.4	1079.8
290.5	1080.08
290.6	1080.37
290.7	1080.66
290.8	1080.95
290.9	1081.24
291	1081.52
291.1	1081.81
291.2	1082.1
291.3	1082.39
291.4	1082.68
291.5	1082.96
291.6	1083.25
291.7	1083.54
291.8	1083.83
291.9	1084.12
292	1084.4
292.1	1084.69
292.2	1084.98
292.3	1085.27
292.4	1085.56
292.5	1085.84
292.6	1086.13
292.7	1086.42
292.8	1086.71
292.9	1087
293	1087.28
293.1	1087.57
293.2	1087.86
293.3	1088.15
293.4	1088.44
293.5	1088.72
293.6	1089.01
293.7	1089.3
293.8	1089.59
293.9	1089.88
294	1090.16
294.1	1090.45
294.2	1090.74
294.3	1091.03
294.4	1091.32
294.5	1091.6
294.6	1091.89
294.7	1092.18
294.8	1092.47
294.9	1092.76
295	1093.04
295.1	1093.33
295.2	1093.62
295.3	1093.91
295.4	1094.2
295.5	1094.48
295.6	1094.77
295.7	1095.06
295.8	1095.35
295.9	1095.64
296	1095.92
296.1	1096.21
296.2	1096.5
296.3	1096.79
296.4	1097.08
296.5	1097.36
296.6	1097.65
296.7	1097.94
296.8	1098.23
296.9	1098.52
297	1098.8
297.1	1099.09
297.2	1099.38
297.3	1099.67
297.4	1099.96
297.5	1100.24
297.6	1100.53
297.7	1100.82
297.8	1101.11
297.9	1101.4
298	1101.68
298.1	1101.97
298.2	1102.26
298.3	1102.55
298.4	1102.84
298.5	1103.12
298.6	1103.41
298.7	1103.7
298.8	1103.99
298.9	1104.28
299	1104.56
299.1	1104.85
299.2	1105.14
299.3	1105.43
299.4	1105.72
299.5	1106
299.6	1106.29
299.7	1106.58
299.8	1106.87
299.9	1107.16
300	1107.44
300.1	1107.73
300.2	1108.02
300.3	1108.31
300.4	1108.6
300.5	1108.88
300.6	1109.17
300.7	1109.46
300.8	1109.75
300.9	1110.04
301	1110.32
301.1	1110.61
301.2	1110.9
301.3	1111.19
301.4	1111.48
301.5	1111.76
301.6	1112.05
301.7	1112.34
301.8	1112.63
301.9	1112.92
302	1113.2
302.1	1113.49
302.2	1113.78
302.3	1114.07
302.4	1114.36
302.5	1114.64
302.6	1114.93
302.7	1115.22
302.8	1115.51
302.9	1115.8
303	1116.08
303.1	1116.37
303.2	1116.66
303.3	1116.95
303.4	1117.24
303.5	1117.52
303.6	1117.81
303.7	1118.1
303.8	1118.39
303.9	1118.68
304	1118.96
304.1	1119.25
304.2	1119.54
304.3	1119.83
304.4	1120.12
304.5	1120.4
304.6	1120.69
304.7	1120.98
304.8	1121.27
304.9	1121.56
305	1122.46
305.1	1122.75
305.2	1123.04
305.3	1123.33
305.4	1123.62
305.5	1123.91
305.6	1124.2
305.7	1124.48
305.8	1124.77
305.9	1125.06
306	1125.35
306.1	1125.64
306.2	1125.93
306.3	1126.21
306.4	1126.5
306.5	1126.79
306.6	1127.08
306.7	1127.37
306.8	1127.66
306.9	1127.95
307	1128.23
307.1	1128.52
307.2	1128.81
307.3	1129.1
307.4	1129.39
307.5	1129.68
307.6	1129.96
307.7	1130.25
307.8	1130.54
307.9	1130.83
308	1131.12
308.1	1131.41
308.2	1131.69
308.3	1131.98
308.4	1132.27
308.5	1132.56
308.6	1132.85
308.7	1133.14
308.8	1133.43
308.9	1133.71
309	1134
309.1	1134.29
309.2	1134.58
309.3	1134.87
309.4	1135.16
309.5	1135.44
309.6	1135.73
309.7	1136.02
309.8	1136.31
309.9	1136.6
310	1136.89
310.1	1137.18
310.2	1137.46
310.3	1137.75
310.4	1138.04
310.5	1138.33
310.6	1138.62
310.7	1138.91
310.8	1139.19
310.9	1139.48
311	1139.77
311.1	1140.06
311.2	1140.35
311.3	1140.64
311.4	1140.92
311.5	1141.21
311.6	1141.5
311.7	1141.79
311.8	1142.08
311.9	1142.37
312	1142.66
312.1	1142.94
312.2	1143.23
312.3	1143.52
312.4	1143.81
312.5	1144.1
312.6	1144.39
312.7	1144.67
312.8	1144.96
312.9	1145.25
313	1145.54
313.1	1145.83
313.2	1146.12
313.3	1146.4
313.4	1146.69
313.5	1146.98
313.6	1147.27
313.7	1147.56
313.8	1147.85
313.9	1148.13
314	1148.42
314.1	1148.71
314.2	1149
314.3	1149.29
314.4	1149.58
314.5	1149.87
314.6	1150.15
314.7	1150.44
314.8	1150.73
314.9	1151.02
315	1151.31
315.1	1151.6
315.2	1151.88
315.3	1566.91
315.4	2533.47
315.5	2944.1
315.6	3420.85
315.7	3789.89
315.8	4342.16
315.9	4845.34
316	5285.54
316.1	6174.38
316.2	6838.69
316.3	7040.45
316.4	7152.2
316.5	8223.22
316.6	8818.65
316.7	9160.08
316.8	9925.01
316.9	10266.63
317	10707.06
317.1	11294.49
317.2	10739.33
317.3	10949.34
317.4	11265.16
317.5	10433.95
317.6	10274.49
317.7	10242.37
317.8	9162.53
317.9	9734.54
318	8354.18
318.1	7601.84
318.2	7506.44
318.3	6978.53
318.4	6527.51
318.5	6092.33
318.6	5811.52
318.7	5116.21
318.8	5481.44
318.9	4917.19
319	4193.23
319.1	4362.75
319.2	4023.07
319.3	3739.37
319.4	3760.1
319.5	3512.98
319.6	3121.41
319.7	3176.37
319.8	2889.08
319.9	2758.46
320	2496.17
320.1	2342.87
320.2	2364.17
320.3	1458.78
320.4	1249.14
320.5	1249.36
320.6	1249.57
320.7	1249.78
320.8	1249.99
320.9	1250.2
321	1250.42
321.1	1250.63
321.2	1250.84
321.3	1251.05
321.4	1251.26
321.5	1251.48
321.6	1251.69
321.7	1251.9
321.8	1252.11
321.9	1252.32
322	1252.54
322.1	1252.75
322.2	1252.96
322.3	1253.17
322.4	1253.38
322.5	1253.6
322.6	1253.81
322.7	1254.02
322.8	1254.23
322.9	1254.44
323	1254.66
323.1	1254.87
323.2	1255.08
323.3	1255.29
323.4	1255.5
323.5	1255.72
323.6	1255.93
323.7	1256.14
323.8	1256.35
323.9	1256.56
324	1256.78
324.1	1256.99
324.2	1257.2
324.3	1257.41
324.4	1257.62
324.5	1257.84
324.6	1258.05
324.7	1258.26
324.8	1258.47
324.9	1258.68
325	1258.9
325.1	1259.11
325.2	1259.32
325.3	1259.53
325.4	1259.74
325.5	1259.96
325.6	1260.17
325.7	1260.38
325.8	1260.59
325.9	1260.8
326	1261.02
326.1	1261.23
326.2	1261.44
326.3	1261.65
326.4	1261.86
326.5	1262.08
326.6	1262.29
326.7	1262.5
326.8	1262.71
326.9	1262.92
327	1263.14
327.1	1263.35
327.2	1263.56
327.3	1263.77
327.4	1263.98
327.5	1264.2
327.6	1264.41
327.7	1264.62
327.8	1264.83
327.9	1265.04
328	1265.26
328.1	1265.47
328.2	1265.68
328.3	1265.89
328.4	1266.1
328.5	1266.32
328.6	1266.53
328.7	1266.74
328.8	1266.95
328.9	1267.16
329	1267.38
329.1	1267.59
329.2	1267.8
329.3	1268.01
329.4	1268.22
329.5	1268.44
329.6	1268.65
329.7	1268.86
329.8	1269.07
329.9	1269.28
330	1269.5
330.1	1269.71
330.2	1269.92
330.3	1270.13
330.4	1270.34
330.5	1270.56
330.6	1270.77
330.7	1270.98
330.8	1271.19
330.9	1271.4
331	1271.62
331.1	1271.83
331.2	1272.04
331.3	1272.25
331.4	1272.46
331.5	1272.68
331.6	1272.89
331.7	1273.1
331.8	1273.31
331.9	1273.52
332	1273.74
332.1	1273.95
332.2	1274.16
332.3	1274.37
332.4	1274.58
332.5	1274.8
332.6	1275.01
332.7	1275.22
332.8	1275.43
332.9	1275.64
333	1275.86
333.1	1276.07
333.2	1276.28
333.3	1276.49
333.4	1276.7
333.5	1276.92
333.6	1277.13
333.7	1277.34
333.8	1277.55
333.9	1277.76
334	1277.98
334.1	1278.19
334.2	1278.4
334.3	1278.61
334.4	1278.82
334.5	1279.04
334.6	1279.25
334.7	1279.46
334.8	1279.67
334.9	1279.88
335	1280.1
335.1	1280.31
335.2	1280.52
335.3	1280.73
335.4	1280.94
335.5	1281.16
335.6	1281.37
335.7	1281.58
335.8	1281.79
335.9	1282
336	1282.22
336.1	1282.43
336.2	1282.64
336.3	1282.85
336.4	1283.06
336.5	1283.28
336.6	1283.49
336.7	1283.7
336.8	1283.91
336.9	1284.12
337	1284.34
337.1	1284.55
337.2	1284.76
337.3	1284.97
337.4	1285.18
337.5	1285.4
337.6	1285.61
337.7	1285.82
337.8	1286.03
337.9	1286.24
338	1286.46
338.1	1286.67
338.2	1286.88
338.3	1287.09
338.4	1287.3
338.5	1287.52
338.6	1287.73
338.7	1287.94
338.8	1288.15
338.9	1288.36
339	1288.58
339.1	1288.79
339.2	1289
339.3	1289.21
339.4	1289.42
339.5	1289.64
339.6	1289.85
339.7	1290.06
339.8	1290.27
339.9	1290.48
340	1290.7
340.1	1290.91
340.2	1291.12
340.3	1291.33
340.4	1291.54
340.5	1291.76
340.6	1291.97
340.7	1292.18
340.8	1292.39
340.9	1292.6
341	1292.82
341.1	1293.03
341.2	1293.24
341.3	1293.45
341.4	1293.66
341.5	1293.88
341.6	1294.09
341.7	1294.3
341.8	1294.51
341.9	1294.72
342	1294.94
342.1	1295.15
342.2	1295.36
342.3	1295.57
342.4	1295.78
342.5	1296
342.6	1296.21
342.7	1296.42
342.8	1296.63
342.9	1296.84
343	1297.06
343.1	1297.27
343.2	1297.48
343.3	1297.69
343.4	1297.9
343.5	1298.12
343.6	1298.33
343.7	1298.54
343.8	1298.75
343.9	1298.96
344	1299.18
344.1	1299.39
344.2	1299.6
344.3	1299.81
344.4	1300.02
344.5	1300.24
344.6	1300.45
344.7	1300.66
344.8	1300.87
344.9	1301.08
345	1301.3
345.1	1301.51
345.2	1301.72
345.3	1301.93
345.4	1302.14
345.5	1302.36
345.6	1302.57
345.7	1302.78
345.8	1302.99
345.9	1303.2
346	1303.42
346.1	1303.63
346.2	1303.84
346.3	1304.05
346.4	1304.26
346.5	1304.48
346.6	1304.69
346.7	1304.9
346.8	1305.11
346.9	1305.32
347	1305.54
347.1	1305.75
347.2	1305.96
347.3	1306.17
347.4	1306.38
347.5	1306.6
347.6	1306.81
347.7	1307.02
347.8	1307.23
347.9	1307.44
348	1307.66
348.1	1307.87
348.2	1308.08
348.3	1308.29
348.4	1308.5
348.5	1308.72
348.6	1308.93
348.7	1309.14
348.8	1309.35
348.9	1309.56
349	1309.78
349.1	1309.99
349.2	1310.2
349.3	1310.41
349.4	1310.62
349.5	1310.84
349.6	1311.05
349.7	1311.26
349.8	1311.47
349.9	1311.68
350	1311.9
350.1	1312.11
350.2	1312.32
350.3	1312.53
350.4	1312.74
350.5	1312.96
350.6	1313.17
350.7	1313.38
350.8	1313.59
350.9	1313.8
351	1314.02
351.1	1314.23
351.2	1314.44
351.3	1314.65
351.4	1314.86
351.5	1315.08
351.6	1315.29
351.7	1315.5
351.8	1315.71
351.9	1315.92
352	1316.14
352.1	1316.35
352.2	1316.56
352.3	1316.77
352.4	1316.98
352.5	1317.2
352.6	1317.41
352.7	1317.62
352.8	1317.83
352.9	1318.04
353	1318.26
353.1	1318.47
353.2	1318.68
353.3	1318.89
353.4	1319.1
353.5	1319.32
353.6	1319.53
353.7	1319.74
353.8	1319.95
353.9	1320.16
354	1320.38
354.1	1320.59
354.2	1320.8
354.3	1321.01
354.4	1321.22
354.5	1321.44
354.6	1321.65
354.7	1321.86
354.8	1322.07
354.9	1322.28
355	1322.5
355.1	1322.71
355.2	1322.92
355.3	1323.13
355.4	1323.34
355.5	1323.56
355.6	1323.77
355.7	1323.98
355.8	1324.19
355.9	1324.4
356	1324.62
356.1	1324.83
356.2	1325.04
356.3	1325.25
356.4	1325.46
356.5	1325.68
356.6	1325.89
356.7	1326.1
356.8	1326.31
356.9	1326.52
357	1326.74
357.1	1326.95
357.2	1327.16
357.3	1327.37
357.4	1327.58
357.5	1327.8
357.6	1328.01
357.7	1328.22
357.8	1328.43
357.9	1328.64
358	1328.86
358.1	1329.07
358.2	1329.28
358.3	1329.49
358.4	1329.7
358.5	1329.92
358.6	1330.13
358.7	1330.34
358.8	1330.55
358.9	1330.76
359	1330.98
359.1	1331.19
359.2	1331.4
359.3	1331.61
359.4	1331.82
359.5	1332.04
359.6	1332.25
359.7	1332.46
359.8	1332.67
359.9	1332.88
360	1333.1
360.1	1333.31
360.2	1333.52
360.3	1333.73
360.4	1333.94
360.5	1334.16
360.6	1334.37
360.7	1334.58
360.8	1334.79
360.9	1335
361	1335.22
361.1	1335.43
361.2	1335.64
361.3	1335.85
361.4	1336.06
361.5	1336.28
361.6	1336.49
361.7	1336.7
361.8	1336.91
361.9	1337.12
362	1337.34
362.1	1337.55
362.2	1337.76
362.3	1337.97
362.4	1338.18
362.5	1338.4
362.6	1338.61
362.7	1338.82
362.8	1339.03
362.9	1339.24
363	1339.46
363.1	1339.67
363.2	1339.88
363.3	1340.09
363.4	1340.3
363.5	1340.52
363.6	1340.73
363.7	1340.94
363.8	1341.15
363.9	1341.36
364	1341.58
364.1	1341.79
364.2	1342
364.3	1342.21
364.4	1342.42
364.5	1342.64
364.6	1342.85
364.7	1343.06
364.8	1343.27
364.9	1343.48
365	1343.7
365.1	1343.91
365.2	1344.12
365.3	1344.33
365.4	1344.54
365.5	1344.76
365.6	1344.97
365.7	1345.18
365.8	1345.39
365.9	1345.6
366	1345.82
366.1	1346.03
366.2	1346.24
366.3	1346.45
366.4	1346.66
366.5	1346.88
366.6	1347.09
366.7	1347.3
366.8	1347.51
366.9	1347.72
367	1347.94
367.1	1348.15
367.2	1348.36
367.3	1348.57
367.4	1348.78
367.5	1349
367.6	1349.21
367.7	1349.42
367.8	1349.63
367.9	1349.84
368	1350.06
368.1	1350.27
368.2	1350.48
368.3	1350.69
368.4	1350.9
368.5	1351.12
368.6	1351.33
368.7	1351.54
368.8	1351.75
368.9	1351.96
369	1352.18
369.1	1352.39
369.2	1352.6
369.3	1352.81
369.4	1353.02
369.5	1353.24
369.6	1353.45
369.7	1353.66
369.8	1353.87
369.9	1354.08
370	1354.3
370.1	1354.51
370.2	1354.72
370.3	1354.93
370.4	1355.14
370.5	1355.36
370.6	1355.57
370.7	1355.78
370.8	1355.99
370.9	1356.2
371	1356.42
371.1	1356.63
371.2	1356.84
371.3	1357.05
371.4	1357.26
371.5	1357.48
371.6	1357.69
371.7	1357.9
371.8	1358.11
371.9	1358.32
372	1358.54
372.1	1358.75
372.2	1358.96
372.3	1359.17
372.4	1359.38
372.5	1359.6
372.6	1359.81
372.7	1360.02
372.8	1360.23
372.9	1360.44
373	1360.66
373.1	1360.87
373.2	1361.08
373.3	1361.29
373.4	1361.5
373.5	1361.72
373.6	1361.93
373.7	1362.14
373.8	1362.35
373.9	1362.56
374	1362.78
374.1	1362.99
374.2	1363.2
374.3	1363.41
374.4	1363.62
374.5	1363.84
374.6	1364.05
374.7	1364.26
374.8	1364.47
374.9	1364.68
375	1364.9
375.1	1365.11
375.2	1365.32
375.3	1365.53
375.4	1365.74
375.5	1365.96
375.6	1366.17
375.7	1366.38
375.8	1366.59
375.9	1366.8
376	1367.02
376.1	1367.23
376.2	1367.44
376.3	1367.65
376.4	1367.86
376.5	1368.08
376.6	1368.29
376.7	1368.5
376.8	1368.71
376.9	1368.92
377	1369.14
377.1	1369.35
377.2	1369.56
377.3	1369.77
377.4	1369.98
377.5	1370.2
377.6	1370.41
377.7	1370.62
377.8	1370.83
377.9	1371.04
378	1371.26
378.1	1371.47
378.2	1371.68
378.3	1371.89
378.4	1372.1
378.5	1372.32
378.6	1372.53
378.7	1372.74
378.8	1372.95
378.9	1373.16
379	1373.38
379.1	1373.59
379.2	1373.8
379.3	1374.01
379.4	1374.22
379.5	1374.44
379.6	1374.65
379.7	1374.86
379.8	1375.07
379.9	1375.28
380	1375.5
380.1	1375.71
380.2	1375.92
380.3	1376.13
380.4	1376.34
380.5	1376.56
380.6	1376.77
380.7	1376.98
380.8	1377.19
380.9	1377.4
381	1377.62
381.1	1377.83
381.2	1378.04
381.3	1378.25
381.4	1378.46
381.5	1378.68
381.6	1378.89
381.7	1379.1
381.8	1379.31
381.9	1379.52
382	1379.74
382.1	1379.95
382.2	1380.16
382.3	1380.37
382.4	1380.58
382.5	1380.8
382.6	1381.01
382.7	1381.22
382.8	1381.43
382.9	1381.64
383	1381.86
383.1	1382.07
383.2	1382.28
383.3	1382.49
383.4	1382.7
383.5	1382.92
383.6	1383.13
383.7	1383.34
383.8	1383.55
383.9	1383.76
384	1383.98
384.1	1384.19
384.2	1384.4
384.3	1384.61
384.4	1384.82
384.5	1385.04
384.6	1385.25
384.7	1385.46
384.8	1385.67
384.9	1385.88
385	1386.1
385.1	1386.31
385.2	1386.52
385.3	1386.73
385.4	1386.94
385.5	1387.16
385.6	1387.37
385.7	1387.58
385.8	1387.79
385.9	1388
386	1388.22
386.1	1388.43
386.2	1388.64
386.3	1388.85
386.4	1389.06
386.5	1389.28
386.6	1389.49
386.7	1389.7
386.8	1389.91
386.9	1390.12
387	1390.34
387.1	1390.55
387.2	1390.76
387.3	1390.97
387.4	1391.18
387.5	1391.4
387.6	1391.61
387.7	1391.82
387.8	1392.03
387.9	1392.24
388	1392.46
388.1	1392.67
388.2	1392.88
388.3	1393.09
388.4	1393.3
388.5	1393.52
388.6	1393.73
388.7	1393.94
388.8	1394.15
388.9	1394.36
389	1394.58
389.1	1394.79
389.2	1395
389.3	1395.21
389.4	1395.42
389.5	1395.64
389.6	1395.85
389.7	1396.06
389.8	1396.27
389.9	1396.48
390	1396.7
390.1	1396.91
390.2	1397.12
390.3	1397.33
390.4	1397.54
390.5	1397.76
390.6	1397.97
390.7	1398.18
390.8	1398.39
390.9	1398.6
391	1398.82
391.1	1399.03
391.2	1399.24
391.3	1399.45
391.4	1399.66
391.5	1399.88
391.6	1400.09
391.7	1400.3
391.8	1400.51
391.9	1400.72
392	1400.94
392.1	1401.15
392.2	1401.36
392.3	1401.57
392.4	1401.78
392.5	1402
392.6	1402.21
392.7	1402.42
392.8	1402.63
392.9	1402.84
393	1403.06
393.1	1403.27
393.2	1403.48
393.3	1403.69
393.4	1403.9
393.5	1404.12
393.6	1404.33
393.7	1404.54
393.8	1404.75
393.9	1404.96
394	1405.18
394.1	1405.39
394.2	1405.6
394.3	1405.81
394.4	1406.02
394.5	1406.24
394.6	1406.45
394.7	1406.66
394.8	1406.87
394.9	1407.08
395	1407.3
395.1	1407.51
395.2	1407.72
395.3	1407.93
395.4	1408.14
395.5	1408.36
395.6	1408.57
395.7	1408.78
395.8	1408.99
395.9	1409.2
396	1409.42
396.1	1409.63
396.2	1409.84
396.3	1410.05
396.4	1410.26
396.5	1410.48
396.6	1410.69
396.7	1410.9
396.8	1411.11
396.9	1411.32
397	1411.54
397.1	1411.75
397.2	1411.96
397.3	1412.17
397.4	1412.38
397.5	1412.6
397.6	1412.81
397.7	1413.02
397.8	1413.23
397.9	1413.44
398	1413.66
398.1	1413.87
398.2	1414.08
398.3	1414.29
398.4	1414.5
398.5	1414.72
398.6	1414.93
398.7	1415.14
398.8	1415.35
398.9	1415.56
399	1415.78
399.1	1415.99
399.2	1416.2
399.3	1416.41
399.4	1416.62
399.5	1416.84
399.6	1417.05
399.7	1417.26
399.8	1417.47
399.9	1417.68
400	1417.9
400.1	1418.11
400.2	1418.32
400.3	1418.53
400.4	1418.74
400.5	1418.96
400.6	1419.17
400.7	1419.38
400.8	1419.59
400.9	1419.8
401	1420.02
401.1	1420.23
401.2	1420.44
401.3	1420.65
401.4	1420.86
401.5	1421.08
401.6	1421.29
401.7	1421.5
401.8	1421.71
401.9	1421.92
402	1422.14
402.1	1422.35
402.2	1422.56
402.3	1422.77
402.4	1422.98
402.5	1423.2
402.6	1423.41
402.7	1423.62
402.8	1423.83
402.9	1424.04
403	1424.26
403.1	1424.47
403.2	1424.68
403.3	1424.89
403.4	1425.1
403.5	1425.32
403.6	1425.53
403.7	1425.74
403.8	1425.95
403.9	1426.16
404	1426.38
404.1	1426.59
404.2	1426.8
404.3	1427.01
404.4	1427.22
404.5	1427.44
404.6	1427.65
404.7	1427.86
404.8	1428.07
404.9	1428.28
405	1428.5
405.1	1428.71
405.2	1428.92
405.3	1429.13
405.4	1429.34
405.5	1429.56
405.6	1429.77
405.7	1429.98
405.8	1430.19
405.9	1430.4
406	1430.62
406.1	1430.83
406.2	1431.04
406.3	1431.25
406.4	1431.46
406.5	1431.68
406.6	1431.89
406.7	1432.1
406.8	1432.31
406.9	1432.52
407	1432.74
407.1	1432.95
407.2	1433.16
407.3	1433.37
407.4	1433.58
407.5	1433.8
407.6	1434.01
407.7	1434.22
407.8	1434.43
407.9	1434.64
408	1434.86
408.1	1435.07
408.2	1435.28
408.3	1435.49
408.4	1435.7
408.5	1435.92
408.6	1436.13
408.7	1436.34
408.8	1436.55
408.9	1436.76
409	1436.98
409.1	1437.19
409.2	1437.4
409.3	1437.61
409.4	1437.82
409.5	1438.04
409.6	1438.25
409.7	1438.46
409.8	1438.67
409.9	1438.88
410	1439.1
410.1	1439.31
410.2	1439.52
410.3	1439.73
410.4	1439.94
410.5	1440.16
410.6	1440.37
410.7	1440.58
410.8	1440.79
410.9	1441
411	1441.22
411.1	1441.43
411.2	1441.64
411.3	1441.85
411.4	1442.06
411.5	1442.28
411.6	1442.49
411.7	1442.7
411.8	1442.91
411.9	1443.12
412	1443.34
412.1	1443.55
412.2	1443.76
412.3	1443.97
412.4	1444.18
412.5	1444.4
412.6	1444.61
412.7	1444.82
412.8	1445.03
412.9	1445.24
413	1445.46
413.1	1445.67
413.2	1445.88
413.3	1446.09
413.4	1446.3
413.5	1446.52
413.6	1446.73
413.7	1446.94
413.8	1447.15
413.9	1447.36
414	1447.58
414.1	1447.79
414.2	1448
414.3	1448.21
414.4	1448.42
414.5	1448.64
414.6	1448.85
414.7	1449.06
414.8	1449.27
414.9	1449.48
415	1449.7
415.1	1449.91
415.2	1450.12
415.3	1450.33
415.4	1450.54
415.5	1450.76
415.6	1450.97
415.7	1451.18
415.8	1451.39
415.9	1451.6
416	1451.82
416.1	1452.03
416.2	1452.24
416.3	1452.45
416.4	1452.66
416.5	1452.88
416.6	1453.09
416.7	1453.3
416.8	1453.51
416.9	1453.72
417	1453.94
417.1	1454.15
417.2	1454.36
417.3	1454.57
417.4	1454.78
417.5	1455
417.6	1455.21
417.7	1455.42
417.8	1455.63
417.9	1455.84
418	1456.06
418.1	1456.27
418.2	1456.48
418.3	1456.69
418.4	1456.9
418.5	1457.12
418.6	1457.33
418.7	1457.54
418.8	1457.75
418.9	1457.96
419	1458.18
419.1	1458.39
419.2	1458.6
419.3	1458.81
419.4	1459.02
419.5	1459.24
419.6	1459.45
419.7	1459.66
419.8	1459.87
419.9	1460.08
420	1460.3
420.1	1460.51
420.2	1460.72
420.3	1460.93
420.4	1461.14
420.5	1461.36
420.6	1461.57
420.7	1461.78
420.8	1461.99
420.9	1462.2
421	1462.42
421.1	1462.63
421.2	1462.84
421.3	1463.05
421.4	1463.26
421.5	1463.48
421.6	1463.69
421.7	1463.9
421.8	1464.11
421.9	1464.32
422	1464.54
422.1	1464.75
422.2	1464.96
422.3	1465.17
422.4	1465.38
422.5	1465.6
422.6	1465.81
422.7	1466.02
422.8	1466.23
422.9	1466.44
423	1466.66
423.1	1466.87
423.2	1467.08
423.3	1467.29
423.4	1467.5
423.5	1467.72
423.6	1467.93
423.7	1468.14
423.8	1468.35
423.9	1468.56
424	1468.78
424.1	1468.99
424.2	1469.2
424.3	1469.41
424.4	1469.62
424.5	1469.84
424.6	1470.05
424.7	1470.26
424.8	1470.47
424.9	1470.68
425	1470.9
425.1	1471.11
425.2	1471.32
425.3	1471.53
425.4	1471.74
425.5	1471.96
425.6	1472.17
425.7	1472.38
425.8	1472.59
425.9	1472.8
426	1473.02
426.1	1473.23
426.2	1473.44
426.3	1473.65
426.4	1473.86
426.5	1474.08
426.6	1474.29
426.7	1474.5
426.8	1474.71
426.9	1474.92
427	1475.14
427.1	1475.35
427.2	1475.56
427.3	1475.77
427.4	1475.98
427.5	1476.2
427.6	1476.41
427.7	1476.62
427.8	1476.83
427.9	1477.04
428	1477.26
428.1	1477.47
428.2	1477.68
428.3	1477.89
428.4	1478.1
428.5	1478.32
428.6	1478.53
428.7	1478.74
428.8	1478.95
428.9	1479.16
429	1479.38
429.1	1479.59
429.2	1479.8
429.3	1480.01
429.4	1480.22
429.5	1480.44
429.6	1480.65
429.7	1480.86
429.8	1481.07
429.9	1481.28
430	1481.5
430.1	1481.71
430.2	1481.92
430.3	1482.13
430.4	1482.34
430.5	1482.56
430.6	1482.77
430.7	1482.98
430.8	1483.19
430.9	1483.4
431	1483.62
431.1	1483.83
431.2	1484.04
431.3	1484.25
431.4	1484.46
431.5	1484.68
431.6	1484.89
431.7	1485.1
431.8	1485.31
431.9	1485.52
432	1485.74
432.1	1485.95
432.2	1486.16
432.3	1486.37
432.4	1486.58
432.5	1486.8
432.6	1487.01
432.7	1487.22
432.8	1487.43
432.9	1487.64
433	1487.86
433.1	1488.07
433.2	1488.28
433.3	1488.49
433.4	1488.7
433.5	1488.92
433.6	1489.13
433.7	1489.34
433.8	1489.55
433.9	1489.76
434	1489.98
434.1	1490.19
434.2	1490.4
434.3	1490.61
434.4	1490.82
434.5	1491.04
434.6	1491.25
434.7	1491.46
434.8	1491.67
434.9	1491.88
435	1492.1
435.1	1492.31
435.2	1492.52
435.3	1492.73
435.4	1492.94
435.5	1493.16
435.6	1493.37
435.7	1493.58
435.8	1493.79
435.9	1494
436	1494.22
436.1	1494.43
436.2	1494.64
436.3	1494.85
436.4	1495.06
436.5	1495.28
436.6	1495.49
436.7	1495.7
436.8	1495.91
436.9	1496.12
437	1496.34
437.1	1496.55
437.2	1496.76
437.3	1496.97
437.4	1497.18
437.5	1497.4
437.6	1497.61
437.7	1497.82
437.8	1498.03
437.9	1498.24
438	1498.46
438.1	1498.67
438.2	1498.88
438.3	1499.09
438.4	1499.3
438.5	1499.52
438.6	1499.73
438.7	1499.94
438.8	1500.15
438.9	1500.36
439	1500.58
439.1	1500.79
439.2	1501
439.3	1501.21
439.4	1501.42
439.5	1501.64
439.6	1501.85
439.7	1502.06
439.8	1502.27
439.9	1502.48
440	1502.7
440.1	1502.91
440.2	1503.12
440.3	1503.33
440.4	1503.54
440.5	1503.76
440.6	1503.97
440.7	1504.18
440.8	1504.39
440.9	1504.6
441	1504.82
441.1	1505.03
441.2	1505.24
441.3	1505.45
441.4	1505.66
441.5	1505.88
441.6	1506.09
441.7	1506.3
441.8	1506.51
441.9	1506.72
442	1506.94
442.1	1507.15
442.2	1507.36
442.3	1507.57
442.4	1507.78
442.5	1508
442.6	1508.21
442.7	1508.42
442.8	1508.63
442.9	1508.84
443	1509.06
443.1	1509.27
443.2	1509.48
443.3	1509.69
443.4	1509.9
443.5	1510.12
443.6	1510.33
443.7	1510.54
443.8	1510.75
443.9	1510.96
444	1511.18
444.1	1511.39
444.2	1511.6
444.3	1511.81
444.4	1512.02
444.5	1512.24
444.6	1512.45
444.7	1512.66
444.8	1512.87
444.9	1513.08
445	1513.3
445.1	1513.51
445.2	1513.72
445.3	1513.93
445.4	1514.14
445.5	1514.36
445.6	1514.57
445.7	1514.78
445.8	1514.99
445.9	1515.2
446	1515.42
446.1	1515.63
446.2	1515.84
446.3	1516.05
446.4	1516.26
446.5	1516.48
446.6	1516.69
446.7	1516.9
446.8	1517.11
446.9	1517.32
447	1517.54
447.1	1517.75
447.2	1517.96
447.3	1518.17
447.4	1518.38
447.5	1518.6
447.6	1518.81
447.7	1519.02
447.8	1519.23
447.9	1519.44
448	1519.66
448.1	1519.87
448.2	1520.08
448.3	1520.29
448.4	1520.5
448.5	1520.72
448.6	1520.93
448.7	1521.14
448.8	1521.35
448.9	1521.56
449	1521.78
449.1	1521.99
449.2	1522.2
449.3	1522.41
449.4	1522.62
449.5	1522.84
449.6	1523.05
449.7	1523.26
449.8	1523.47
449.9	1523.68
450	406.12